/*--------------------------------*- C++ -*----------------------------------*\
  =========                 |
  \\      /  F ield         | OpenFOAM: The Open Source CFD Toolbox
   \\    /   O peration     | Website:  https://openfoam.org
    \\  /    A nd           | Version:  7
     \\/     M anipulation  |
\*---------------------------------------------------------------------------*/
FoamFile
{
    version     2.0;
    format      ascii;
    class       volScalarField;
    location    "9e-13/dielectric";
    object      voltD;
}
// * * * * * * * * * * * * * * * * * * * * * * * * * * * * * * * * * * * * * //

dimensions      [1 2 -3 0 0 -1 0];

internalField   nonuniform List<scalar> 
5027
(
8.64851
8.52493
8.39984
8.27338
8.14573
8.01707
7.88755
7.75736
7.62666
7.49563
7.36443
7.23324
7.10221
6.9715
6.84126
6.71164
6.58277
6.4548
6.32783
6.202
6.0774
5.95415
5.83232
5.71201
5.5933
5.47625
5.36092
5.24737
5.13565
5.02579
4.91783
4.8118
4.70772
4.60561
4.50547
4.40731
4.31113
4.21694
4.12472
4.03447
3.94617
3.85981
3.77537
3.69282
3.61215
3.53334
3.45634
3.38115
3.30772
3.23603
3.16605
3.09774
3.03108
2.96603
2.90257
2.84064
2.78024
2.72131
2.66383
2.60777
2.55309
2.49976
2.44775
2.39703
2.34756
2.29932
2.25228
2.2064
2.16165
2.11801
2.07545
2.03395
1.99346
1.95398
1.91546
1.8779
1.84125
1.8055
1.77063
1.7366
1.70341
1.67102
1.63941
1.60857
1.57847
1.5491
1.52043
1.49244
1.46513
1.43846
1.41242
1.387
1.36218
1.33794
1.31427
1.29115
1.26857
1.24651
1.22497
1.20391
1.18334
1.16325
1.14361
1.12441
25.9472
25.5763
25.2009
24.8213
24.4382
24.052
23.6633
23.2726
22.8803
22.487
22.0933
21.6995
21.3063
20.914
20.5232
20.1342
19.7474
19.3634
18.9824
18.6048
18.2309
17.861
17.4955
17.1345
16.7782
16.427
16.081
15.7403
15.4051
15.0755
14.7516
14.4335
14.1212
13.8148
13.5144
13.2199
12.9314
12.6488
12.3722
12.1015
11.8366
11.5775
11.3242
11.0766
10.8346
10.5982
10.3672
10.1417
9.92142
9.70638
9.49646
9.29158
9.09163
8.89652
8.70615
8.52042
8.33923
8.16249
7.99009
7.82193
7.65793
7.49797
7.34197
7.18984
7.04147
6.89677
6.75566
6.61805
6.48384
6.35296
6.22531
6.10081
5.97939
5.86096
5.74544
5.63277
5.52285
5.41563
5.31103
5.20898
5.10941
5.01226
4.91747
4.82497
4.73469
4.64659
4.5606
4.47666
4.39473
4.31474
4.23665
4.16041
4.08596
4.01326
3.94226
3.87292
3.80519
3.73903
3.6744
3.61126
3.54956
3.48928
3.43037
3.37281
43.2509
42.6323
42.006
41.3729
40.7338
40.0896
39.4411
38.7893
38.135
37.479
36.8221
36.1654
35.5094
34.8551
34.2032
33.5544
32.9094
32.2689
31.6335
31.0038
30.3803
29.7636
29.154
28.5521
27.9582
27.3726
26.7957
26.2277
25.6689
25.1195
24.5795
24.0493
23.5288
23.0181
22.5174
22.0266
21.5458
21.0748
20.6138
20.1626
19.7212
19.2895
18.8674
18.4547
18.0515
17.6576
17.2727
16.8969
16.5299
16.1716
15.8219
15.4805
15.1473
14.8223
14.5051
14.1957
13.8938
13.5993
13.3121
13.0319
12.7587
12.4922
12.2323
11.9789
11.7317
11.4906
11.2556
11.0263
10.8027
10.5847
10.372
10.1646
9.96233
9.76503
9.57259
9.38487
9.20176
9.02314
8.84888
8.67887
8.513
8.35116
8.19324
8.03913
7.88874
7.74197
7.59871
7.45888
7.32239
7.18914
7.05904
6.93202
6.808
6.68688
6.5686
6.45308
6.34025
6.23003
6.12235
6.01716
5.91437
5.81394
5.7158
5.61992
60.5631
59.6958
58.8179
57.9303
57.0344
56.1314
55.2223
54.3085
53.3913
52.4717
51.551
50.6303
49.7109
48.7938
47.8801
46.9708
46.0669
45.1694
44.279
43.3966
42.523
41.6589
40.805
39.9617
39.1298
38.3096
37.5015
36.706
35.9234
35.1539
34.3978
33.6553
32.9265
32.2116
31.5105
30.8234
30.1502
29.4909
28.8455
28.2139
27.5961
26.9918
26.401
25.8235
25.2592
24.7078
24.1692
23.6433
23.1297
22.6283
22.1389
21.6612
21.195
20.7401
20.2963
19.8633
19.4409
19.0289
18.627
18.235
17.8527
17.4799
17.1163
16.7616
16.4158
16.0785
15.7496
15.4289
15.1161
14.811
14.5135
14.2233
13.9403
13.6642
13.395
13.1324
12.8762
12.6263
12.3825
12.1446
11.9126
11.6861
11.4652
11.2496
11.0392
10.8338
10.6334
10.4378
10.2468
10.0604
9.87836
9.70065
9.52712
9.35767
9.19218
9.03055
8.87269
8.71848
8.56783
8.42064
8.27684
8.13631
7.99899
7.86483
77.8871
76.7701
75.6393
74.4962
73.3423
72.1791
71.0082
69.8313
68.6499
67.4655
66.2797
65.0941
63.9101
62.7292
61.5526
60.3819
59.2181
58.0626
56.9164
55.7806
54.6563
53.5442
52.4452
51.3601
50.2896
49.2343
48.1948
47.1714
46.1647
45.175
44.2026
43.2476
42.3104
41.3911
40.4896
39.6061
38.7407
37.8931
37.0635
36.2516
35.4574
34.6807
33.9213
33.1791
32.4538
31.7453
31.0531
30.3772
29.7173
29.073
28.4441
27.8303
27.2314
26.6469
26.0767
25.5204
24.9777
24.4484
23.9321
23.4285
22.9373
22.4583
21.9912
21.5356
21.0913
20.6581
20.2356
19.8235
19.4217
19.0298
18.6476
18.2748
17.9113
17.5567
17.2108
16.8734
16.5444
16.2233
15.9101
15.6046
15.3065
15.0156
14.7318
14.4549
14.1846
13.9208
13.6633
13.412
13.1667
12.9272
12.6934
12.4651
12.2422
12.0245
11.8119
11.6043
11.4015
11.2034
11.0098
10.8208
10.636
10.4555
10.2791
10.1067
95.2264
93.8583
92.4732
91.0729
89.6594
88.2345
86.8002
85.3586
83.9114
82.4607
81.0084
79.5563
78.1062
76.66
75.2194
73.7859
72.3611
70.9465
69.5435
68.1533
66.7772
65.4163
64.0715
62.7439
61.4343
60.1433
58.8718
57.6202
56.389
55.1788
53.9898
52.8223
51.6765
50.5526
49.4508
48.371
47.3132
46.2775
45.2636
44.2716
43.3012
42.3522
41.4245
40.5178
39.6318
38.7663
37.9209
37.0953
36.2892
35.5023
34.7343
33.9847
33.2532
32.5395
31.8432
31.1638
30.5012
29.8548
29.2244
28.6095
28.0098
27.4249
26.8545
26.2983
25.7559
25.2269
24.711
24.2079
23.7173
23.2389
22.7722
22.3171
21.8733
21.4404
21.0181
20.6062
20.2045
19.8125
19.4302
19.0572
18.6932
18.3381
17.9916
17.6534
17.3235
17.0014
16.6871
16.3802
16.0807
15.7883
15.5029
15.2242
14.952
14.6862
14.4267
14.1732
13.9256
13.6837
13.4474
13.2165
12.991
12.7706
12.5552
12.3446
112.584
110.963
109.322
107.663
105.988
104.299
102.6
100.891
99.1765
97.4575
95.7367
94.0164
92.2985
90.5854
88.879
87.1812
85.4939
83.8188
82.1577
80.5119
78.883
77.2722
75.6807
74.1098
72.5602
71.033
69.5289
68.0485
66.5925
65.1613
63.7554
62.3751
61.0207
59.6922
58.3899
57.1137
55.8638
54.6399
53.442
52.2699
51.1235
50.0026
48.9067
47.8357
46.7893
45.7671
44.7687
43.7938
42.842
41.9129
41.006
40.1209
39.2573
38.4147
37.5926
36.7906
36.0084
35.2453
34.5011
33.7753
33.0674
32.377
31.7038
31.0472
30.407
29.7826
29.1737
28.5799
28.0008
27.4361
26.8854
26.3482
25.8244
25.3134
24.815
24.3289
23.8547
23.3922
22.9409
22.5006
22.0711
21.652
21.243
20.8439
20.4544
20.0743
19.7033
19.3412
18.9877
18.6426
18.3056
17.9767
17.6554
17.3417
17.0354
16.7362
16.4439
16.1584
15.8795
15.607
15.3408
15.0806
14.8264
14.5779
129.965
128.089
126.189
124.269
122.33
120.375
118.408
116.43
114.446
112.456
110.465
108.474
106.486
104.504
102.53
100.566
98.6145
96.6773
94.7564
92.8536
90.9706
89.1087
87.2695
85.4542
83.6639
81.8996
80.1622
78.4525
76.7711
75.1186
73.4956
71.9022
70.3388
68.8057
67.3028
65.8304
64.3882
62.9763
61.5945
60.2426
58.9205
57.6277
56.3641
55.1292
53.9226
52.7441
51.5931
50.4693
49.3721
48.3011
47.2558
46.2358
45.2404
44.2693
43.3219
42.3978
41.4963
40.617
39.7595
38.9231
38.1075
37.312
36.5363
35.7799
35.0422
34.3228
33.6213
32.9372
32.27
31.6194
30.9849
30.3661
29.7625
29.1739
28.5997
28.0397
27.4934
26.9605
26.4406
25.9334
25.4385
24.9557
24.4845
24.0247
23.576
23.1381
22.7107
22.2935
21.8862
21.4886
21.1005
20.7214
20.3513
19.9899
19.637
19.2922
18.9555
18.6266
18.3053
17.9913
17.6845
17.3848
17.0919
16.8055
147.371
145.238
143.077
140.893
138.687
136.464
134.226
131.977
129.72
127.457
125.192
122.928
120.668
118.415
116.171
113.938
111.721
109.519
107.337
105.176
103.037
100.923
98.8344
96.7736
94.7415
92.7392
90.7678
88.8281
86.9208
85.0466
83.2059
81.3992
79.6268
77.8888
76.1854
74.5166
72.8824
71.2826
69.7171
68.1857
66.688
65.2238
63.7927
62.3942
61.028
59.6936
58.3904
57.1181
55.876
54.6637
53.4805
52.3259
51.1993
50.1003
49.0281
47.9822
46.9621
45.9671
44.9967
44.0503
43.1274
42.2273
41.3496
40.4937
39.6591
38.8452
38.0515
37.2775
36.5227
35.7866
35.0687
34.3687
33.6858
33.0199
32.3703
31.7367
31.1187
30.5158
29.9276
29.3538
28.794
28.2477
27.7147
27.1945
26.6869
26.1914
25.7079
25.2359
24.7751
24.3253
23.8861
23.4573
23.0386
22.6297
22.2304
21.8403
21.4593
21.0872
20.7236
20.3684
20.0213
19.6821
19.3507
19.0268
164.808
162.414
159.989
157.537
155.062
152.567
150.056
147.532
144.999
142.46
139.919
137.379
134.844
132.316
129.799
127.297
124.81
122.343
119.897
117.475
115.079
112.711
110.372
108.064
105.789
103.548
101.342
99.1713
97.0375
94.941
92.8824
90.8621
88.8803
86.9374
85.0334
83.1684
81.3422
79.5547
77.8057
76.0949
74.4221
72.7868
71.1886
69.627
68.1016
66.6117
65.157
63.7367
62.3502
60.9971
59.6765
58.388
57.1308
55.9043
54.7079
53.5409
52.4027
51.2925
50.2099
49.154
48.1244
47.1203
46.1411
45.1863
44.2553
43.3473
42.462
41.5986
40.7566
39.9356
39.1349
38.3539
37.5923
36.8495
36.125
35.4182
34.7289
34.0564
33.4003
32.7603
32.1358
31.5265
30.932
30.3518
29.7855
29.2329
28.6935
28.167
27.6531
27.1513
26.6614
26.1831
25.716
25.2599
24.8144
24.3793
23.9543
23.5392
23.1336
22.7373
22.3501
21.9718
21.602
21.2407
182.278
179.62
176.928
174.206
171.458
168.687
165.899
163.096
160.283
157.465
154.644
151.825
149.011
146.207
143.415
140.638
137.881
135.145
132.433
129.748
127.093
124.469
121.878
119.322
116.803
114.322
111.88
109.478
107.117
104.797
102.521
100.286
98.0951
95.9471
93.8425
91.7812
89.7632
87.7882
85.856
83.9663
82.1187
80.3127
78.5479
76.8237
75.1396
73.4949
71.889
70.3214
68.7912
67.2978
65.8406
64.4187
63.0315
61.6783
60.3583
59.0709
57.8152
56.5905
55.3962
54.2315
53.0958
51.9883
50.9083
49.8552
48.8283
47.8269
46.8505
45.8983
44.9697
44.0642
43.1812
42.3199
41.48
40.6608
39.8618
39.0824
38.3222
37.5806
36.8571
36.1512
35.4625
34.7906
34.1349
33.495
32.8706
32.2612
31.6663
31.0856
30.5188
29.9654
29.4252
28.8976
28.3825
27.8794
27.3881
26.9083
26.4395
25.9816
25.5343
25.0972
24.6701
24.2528
23.8449
23.4464
199.785
196.86
193.897
190.9
187.875
184.825
181.755
178.67
175.574
172.472
169.367
166.265
163.17
160.085
157.014
153.961
150.929
147.922
144.942
141.993
139.076
136.194
133.35
130.544
127.779
125.057
122.378
119.743
117.154
114.612
112.116
109.667
107.267
104.913
102.608
100.351
98.1412
95.979
93.8639
91.7956
89.7736
87.7975
85.8666
83.9803
82.1381
80.3392
78.5829
76.8686
75.1953
73.5625
71.9692
70.4148
68.8984
67.4191
65.9763
64.5691
63.1966
61.8582
60.553
59.2802
58.039
56.8288
55.6487
54.4979
53.3758
52.2817
51.2148
50.1744
49.1598
48.1704
47.2056
46.2647
45.347
44.452
43.579
42.7275
41.8969
41.0866
40.2962
39.525
38.7726
38.0384
37.322
36.6229
35.9407
35.2748
34.6249
33.9905
33.3711
32.7665
32.1762
31.5998
31.0369
30.4873
29.9504
29.4261
28.9139
28.4136
27.9247
27.4471
26.9804
26.5244
26.0787
25.6431
217.335
214.138
210.899
207.624
204.317
200.983
197.627
194.255
190.871
187.481
184.089
180.7
177.318
173.949
170.596
167.263
163.954
160.672
157.421
154.204
151.024
147.882
144.782
141.725
138.713
135.748
132.831
129.963
127.146
124.379
121.664
119.001
116.39
113.832
111.326
108.873
106.472
104.123
101.825
99.5786
97.3828
95.237
93.1406
91.0929
89.0933
87.1409
85.2349
83.3746
81.5591
79.7876
78.0591
76.3729
74.728
73.1235
71.5586
70.0325
68.5441
67.0927
65.6773
64.2972
62.9514
61.6391
60.3596
59.112
57.8954
56.7092
55.5525
54.4246
53.3247
52.2522
51.2062
50.1862
49.1913
48.2211
47.2747
46.3516
45.4512
44.5729
43.716
42.88
42.0643
41.2685
40.4919
39.734
38.9944
38.2725
37.568
36.8802
36.2088
35.5533
34.9133
34.2884
33.6782
33.0823
32.5002
31.9318
31.3765
30.834
30.304
29.7861
29.2801
28.7856
28.3024
27.83
234.931
231.457
227.938
224.379
220.785
217.162
213.516
209.851
206.175
202.491
198.807
195.126
191.454
187.796
184.157
180.54
176.95
173.391
169.866
166.379
162.932
159.529
156.171
152.861
149.6
146.391
143.235
140.133
137.086
134.095
131.16
128.282
125.461
122.698
119.992
117.343
114.75
112.215
109.735
107.311
104.942
102.627
100.366
98.1576
96.0013
93.8961
91.8413
89.8359
87.879
85.9696
84.1068
82.2896
80.5171
78.7884
77.1023
75.4581
73.8546
72.2911
70.7664
69.2798
67.8302
66.4168
65.0387
63.695
62.3847
61.1072
59.8615
58.6468
57.4623
56.3073
55.1809
54.0824
53.0111
51.9663
50.9472
49.9532
48.9836
48.0377
47.1149
46.2147
45.3363
44.4793
43.643
42.8269
42.0304
41.253
40.4943
39.7536
39.0305
38.3246
37.6354
36.9624
36.3052
35.6634
35.0365
34.4243
33.8262
33.2419
32.6711
32.1133
31.5683
31.0357
30.5152
30.0063
252.578
248.823
245.018
241.169
237.283
233.365
229.422
225.46
221.485
217.503
213.521
209.544
205.577
201.626
197.695
193.791
189.916
186.076
182.274
178.513
174.798
171.13
167.512
163.947
160.436
156.982
153.585
150.248
146.971
143.754
140.599
137.506
134.475
131.507
128.6
125.755
122.972
120.251
117.589
114.988
112.447
109.964
107.538
105.17
102.858
100.601
98.3983
96.2487
94.1513
92.105
90.1088
88.1617
86.2626
84.4105
82.6042
80.8429
79.1253
77.4506
75.8176
74.2254
72.6729
71.1593
69.6834
68.2444
66.8414
65.4734
64.1395
62.8388
61.5705
60.3338
59.1277
57.9515
56.8045
55.6858
54.5946
53.5303
52.4921
51.4794
50.4914
49.5275
48.5871
47.6694
46.774
45.9001
45.0473
44.2149
43.4025
42.6094
41.8351
41.0793
40.3412
39.6206
38.9168
38.2296
37.5583
36.9026
36.2621
35.6364
35.0251
34.4278
33.8441
33.2737
32.7162
32.1713
270.28
266.237
262.141
257.997
253.812
249.593
245.347
241.081
236.802
232.516
228.23
223.951
219.683
215.434
211.208
207.012
202.848
198.723
194.64
190.603
186.615
182.68
178.8
174.978
171.215
167.514
163.876
160.303
156.795
153.352
149.977
146.668
143.427
140.253
137.147
134.107
131.133
128.226
125.384
122.606
119.893
117.242
114.654
112.127
109.66
107.252
104.902
102.609
100.372
98.1903
96.0618
93.9858
91.9612
89.9867
88.0613
86.1839
84.3532
82.5683
80.828
79.1312
77.4768
75.8639
74.2913
72.758
71.2631
69.8055
68.3843
66.9985
65.6472
64.3296
63.0446
61.7916
60.5695
59.3777
58.2152
57.0813
55.9753
54.8964
53.8438
52.8169
51.815
50.8373
49.8833
48.9523
48.0437
47.1569
46.2913
45.4463
44.6214
43.8161
43.0297
42.2619
41.512
40.7797
40.0645
39.3658
38.6833
38.0166
37.3652
36.7286
36.1066
35.4988
34.9047
34.324
288.043
283.707
279.312
274.865
270.375
265.848
261.293
256.716
252.126
247.529
242.933
238.345
233.772
229.219
224.693
220.199
215.742
211.328
206.96
202.643
198.381
194.176
190.031
185.95
181.933
177.984
174.103
170.292
166.552
162.884
159.287
155.763
152.312
148.933
145.626
142.392
139.228
136.136
133.114
130.161
127.276
124.459
121.708
119.023
116.402
113.845
111.349
108.914
106.539
104.222
101.962
99.7586
97.6095
95.5139
93.4705
91.4781
89.5355
87.6415
85.7949
83.9946
82.2394
80.5282
78.8598
77.2333
75.6474
74.1012
72.5936
71.1236
69.6903
68.2927
66.9297
65.6006
64.3044
63.0402
61.8072
60.6046
59.4314
58.287
57.1706
56.0814
55.0186
53.9816
52.9697
51.9822
51.0184
50.0778
49.1596
48.2633
47.3882
46.5339
45.6997
44.8852
44.0897
43.3129
42.5541
41.8129
41.0888
40.3815
39.6903
39.015
38.3551
37.7101
37.0798
36.4636
305.871
301.234
296.534
291.778
286.975
282.132
277.26
272.365
267.456
262.541
257.629
252.726
247.839
242.977
238.145
233.348
228.594
223.886
219.23
214.629
210.089
205.611
201.199
196.856
192.584
188.385
184.26
180.211
176.238
172.343
168.525
164.785
161.124
157.54
154.034
150.605
147.252
143.976
140.774
137.646
134.592
131.609
128.697
125.855
123.082
120.375
117.735
115.159
112.647
110.197
107.807
105.477
103.204
100.989
98.8286
96.7225
94.6691
92.6672
90.7156
88.8129
86.958
85.1496
83.3866
81.6678
79.9921
78.3583
76.7654
75.2122
73.6978
72.2211
70.781
69.3768
68.0073
66.6716
65.3689
64.0983
62.8588
61.6497
60.4702
59.3194
58.1965
57.1009
56.0317
54.9884
53.9701
52.9761
52.006
51.0589
50.1343
49.2316
48.3501
47.4894
46.6489
45.8279
45.0261
44.2428
43.4777
42.7301
41.9997
41.286
40.5886
39.9069
39.2407
38.5895
323.771
318.826
313.812
308.738
303.613
298.447
293.249
288.027
282.792
277.551
272.314
267.089
261.884
256.705
251.56
246.456
241.398
236.392
231.443
226.556
221.733
216.98
212.299
207.692
203.162
198.712
194.341
190.053
185.847
181.724
177.685
173.73
169.858
166.07
162.365
158.742
155.201
151.741
148.36
145.059
141.835
138.688
135.617
132.619
129.694
126.84
124.056
121.341
118.693
116.111
113.592
111.137
108.743
106.408
104.133
101.914
99.7513
97.6428
95.5873
93.5835
91.63
89.7257
87.8692
86.0593
84.2948
82.5746
80.8973
79.262
77.6675
76.1128
74.5966
73.1182
71.6763
70.2701
68.8986
67.5608
66.2559
64.9829
63.741
62.5294
61.3472
60.1937
59.068
57.9695
56.8973
55.8508
54.8293
53.8321
52.8585
51.908
50.9799
50.0735
49.1884
48.3239
47.4795
46.6547
45.8489
45.0617
44.2924
43.5408
42.8062
42.0883
41.3867
40.7009
341.749
336.486
331.15
325.749
320.293
314.794
309.26
303.703
298.133
292.558
286.988
281.433
275.901
270.399
264.936
259.518
254.151
248.842
243.596
238.417
233.309
228.277
223.323
218.451
213.662
208.958
204.341
199.812
195.372
191.022
186.761
182.59
178.509
174.516
170.613
166.797
163.068
159.426
155.868
152.394
149.002
145.692
142.462
139.31
136.235
133.235
130.309
127.456
124.673
121.96
119.315
116.736
114.221
111.77
109.38
107.05
104.779
102.565
100.407
98.3037
96.253
94.254
92.3052
90.4055
88.5534
86.7478
84.9874
83.2711
81.5976
79.9658
78.3746
76.8229
75.3097
73.8339
72.3945
70.9905
69.621
68.285
66.9816
65.71
64.4693
63.2586
62.0772
60.9242
59.7989
58.7005
57.6283
56.5816
55.5598
54.562
53.5878
52.6364
51.7073
50.7998
49.9134
49.0476
48.2017
47.3752
46.5676
45.7785
45.0073
44.2536
43.5169
42.7968
359.81
354.221
348.552
342.814
337.017
331.174
325.296
319.394
313.478
307.559
301.648
295.754
289.887
284.055
278.266
272.527
266.846
261.229
255.68
250.206
244.81
239.495
234.267
229.126
224.075
219.117
214.253
209.483
204.809
200.23
195.748
191.361
187.07
182.875
178.773
174.765
170.85
167.026
163.292
159.646
156.088
152.616
149.229
145.924
142.7
139.556
136.49
133.5
130.585
127.742
124.971
122.27
119.636
117.069
114.567
112.127
109.75
107.432
105.173
102.971
100.824
98.732
96.6923
94.7039
92.7656
90.8758
89.0335
87.2373
85.4859
83.7783
82.1131
80.4893
78.9057
77.3613
75.855
74.3857
72.9526
71.5545
70.1905
68.8598
67.5613
66.2943
65.0579
63.8513
62.6735
61.524
60.4019
59.3064
58.2369
57.1926
56.1729
55.1771
54.2046
53.2547
52.3269
51.4205
50.535
49.6698
48.8244
47.9983
47.1909
46.4018
45.6305
44.8766
377.962
372.036
366.023
359.936
353.788
347.59
341.356
335.097
328.825
322.553
316.29
310.049
303.838
297.668
291.546
285.48
279.478
273.547
267.691
261.917
256.228
250.629
245.122
239.711
234.397
229.183
224.07
219.058
214.149
209.342
204.638
200.037
195.537
191.138
186.84
182.641
178.54
174.535
170.626
166.811
163.088
159.456
155.913
152.457
149.086
145.799
142.594
139.469
136.423
133.453
130.558
127.736
124.985
122.304
119.69
117.143
114.66
112.24
109.882
107.583
105.342
103.157
101.028
98.9524
96.929
94.9565
93.0335
91.1586
89.3306
87.5482
85.8102
84.1154
82.4626
80.8506
79.2784
77.7449
76.2491
74.7898
73.3662
71.9772
70.622
69.2995
68.0089
66.7494
65.5201
64.3201
63.1488
62.0052
60.8888
59.7986
58.7341
57.6945
56.6792
55.6876
54.7189
53.7725
52.848
51.9447
51.062
50.1994
49.3563
48.5324
47.7269
46.9396
396.212
389.936
383.568
377.121
370.608
364.043
357.44
350.813
344.174
337.536
330.912
324.313
317.749
311.232
304.769
298.369
292.04
285.789
279.621
273.542
267.557
261.669
255.882
250.198
244.619
239.148
233.785
228.531
223.386
218.352
213.426
208.61
203.902
199.302
194.808
190.419
186.133
181.95
177.868
173.884
169.998
166.207
162.51
158.904
155.388
151.96
148.618
145.36
142.185
139.089
136.072
133.131
130.264
127.471
124.748
122.094
119.508
116.987
114.531
112.136
109.802
107.527
105.31
103.149
101.042
98.9877
96.9853
95.0331
93.1297
91.2738
89.4642
87.6995
85.9786
84.3002
82.6632
81.0665
79.509
77.9896
76.5072
75.061
73.6498
72.2727
70.9289
69.6173
68.3372
67.0877
65.8679
64.677
63.5143
62.379
61.2704
60.1877
59.1303
58.0974
57.0885
56.1028
55.1399
54.1989
53.2795
52.3809
51.5027
50.6444
49.8054
414.567
407.93
401.193
394.371
387.48
380.534
373.549
366.54
359.521
352.506
345.509
338.541
331.615
324.741
317.928
311.187
304.524
297.947
291.462
285.074
278.789
272.609
266.538
260.58
254.734
249.004
243.391
237.894
232.514
227.252
222.106
217.075
212.16
207.359
202.67
198.093
193.624
189.264
185.01
180.86
176.812
172.864
169.015
165.262
161.602
158.035
154.558
151.169
147.866
144.647
141.509
138.451
135.471
132.567
129.736
126.978
124.29
121.671
119.117
116.629
114.204
111.84
109.536
107.29
105.101
102.967
100.887
98.8588
96.8813
94.9532
93.0732
91.2399
89.452
87.7084
86.0077
84.3489
82.7308
81.1523
79.6122
78.1097
76.6435
75.2128
73.8166
72.4539
71.1238
69.8255
68.5581
67.3207
66.1125
64.9328
63.7808
62.6557
61.5568
60.4834
59.4349
58.4105
57.4097
56.4317
55.4761
54.5421
53.6293
52.7371
51.8651
433.036
426.023
418.903
411.692
404.407
397.065
389.683
382.277
374.864
367.459
360.076
352.728
345.428
338.188
331.017
323.926
316.922
310.013
303.206
296.504
289.915
283.44
277.083
270.848
264.734
258.745
252.88
247.14
241.525
236.035
230.669
225.426
220.304
215.304
210.422
205.657
201.008
196.472
192.048
187.733
183.526
179.423
175.424
171.525
167.725
164.021
160.411
156.892
153.464
150.122
146.866
143.694
140.602
137.589
134.653
131.792
129.004
126.287
123.639
121.059
118.544
116.093
113.704
111.376
109.106
106.893
104.736
102.634
100.584
98.5846
96.6355
94.7348
92.8813
91.0736
89.3104
87.5907
85.9131
84.2765
82.6798
81.1219
79.6018
78.1184
76.6707
75.2578
73.8787
72.5325
71.2182
69.9351
68.6823
67.4589
66.2642
65.0974
63.9578
62.8446
61.7571
60.6947
59.6566
58.6422
57.651
56.6822
55.7353
54.8098
53.9052
451.629
444.224
436.703
429.085
421.39
413.635
405.84
398.022
390.2
382.39
374.607
366.867
359.182
351.565
344.027
336.578
329.226
321.979
314.843
307.823
300.925
294.152
287.508
280.993
274.61
268.36
262.244
256.261
250.412
244.695
239.109
233.654
228.328
223.129
218.056
213.106
208.278
203.569
198.976
194.499
190.134
185.879
181.732
177.69
173.751
169.912
166.171
162.526
158.974
155.513
152.141
148.855
145.654
142.534
139.495
136.533
133.647
130.834
128.094
125.423
122.821
120.284
117.812
115.402
113.053
110.764
108.532
106.356
104.235
102.166
100.149
98.1826
96.2647
94.3942
92.5698
90.7902
89.0543
87.3608
85.7086
84.0965
82.5234
80.9883
79.4902
78.028
76.6007
75.2074
73.8472
72.5192
71.2226
69.9563
68.7198
67.512
66.3324
65.1801
64.0543
62.9545
61.8798
60.8296
59.8034
58.8005
57.8201
56.8618
470.356
462.54
454.6
446.557
438.432
430.246
422.019
413.771
405.523
397.293
389.096
380.95
372.868
364.864
356.948
349.132
341.424
333.832
326.363
319.021
311.811
304.737
297.802
291.007
284.353
277.843
271.475
265.249
259.165
253.222
247.419
241.754
236.224
230.829
225.567
220.434
215.428
210.548
205.79
201.153
196.633
192.228
187.935
183.752
179.676
175.705
171.836
168.066
164.393
160.815
157.329
153.932
150.623
147.399
144.258
141.198
138.216
135.31
132.479
129.72
127.031
124.411
121.857
119.368
116.942
114.577
112.271
110.024
107.833
105.696
103.613
101.582
99.6007
97.6687
95.7843
93.9462
92.1531
90.4038
88.6972
87.032
85.407
83.8213
82.2737
80.7632
79.2887
77.8493
76.4441
75.0721
73.7324
72.4241
71.1465
69.8986
68.6797
67.4889
66.3257
65.1891
64.0785
489.226
480.98
472.601
464.112
455.536
446.897
438.218
429.522
420.83
412.161
403.535
394.969
386.477
378.073
369.77
361.579
353.507
345.564
337.755
330.086
322.561
315.183
307.955
300.878
293.954
287.182
280.563
274.095
267.778
261.611
255.591
249.717
243.986
238.397
232.947
227.634
222.454
217.405
212.484
207.689
203.017
198.464
194.028
189.707
185.497
181.396
177.401
173.509
169.718
166.025
162.427
158.922
155.508
152.182
148.941
145.784
142.708
139.711
136.791
133.946
131.173
128.471
125.837
123.27
120.768
118.33
115.953
113.635
111.376
109.173
107.025
104.93
102.888
100.896
98.9525
97.0571
95.2081
93.4043
91.6444
89.9272
88.2515
86.6162
85.0201
83.4623
81.9416
80.4571
79.0078
77.5926
76.2108
74.8614
73.5434
72.2562
70.9988
69.7704
68.5703
67.3977
66.2519
508.253
499.554
490.712
481.752
472.702
463.587
454.435
445.268
436.112
426.987
417.915
408.913
399.997
391.182
382.481
373.905
365.462
357.161
349.008
341.007
333.164
325.48
317.957
310.598
303.402
296.369
289.499
282.79
276.242
269.851
263.617
257.536
251.607
245.827
240.192
234.7
229.348
224.133
219.052
214.102
209.28
204.583
200.007
195.551
191.21
186.981
182.863
178.852
174.945
171.139
167.432
163.822
160.305
156.879
153.541
150.29
147.122
144.036
141.029
138.099
135.244
132.462
129.75
127.108
124.532
122.022
119.574
117.189
114.863
112.595
110.384
108.227
106.124
104.073
102.073
100.122
98.218
96.3609
94.5489
92.7809
91.0555
89.3717
87.7284
86.1243
84.5584
83.0297
81.5372
80.0799
78.6568
77.2671
75.9097
74.5839
73.2888
72.0236
70.7874
69.5796
68.3992
527.449
518.272
508.94
499.484
489.933
480.317
470.665
461.005
451.362
441.762
432.224
422.77
413.416
404.178
395.068
386.097
377.275
368.61
360.107
351.772
343.606
335.614
327.797
320.154
312.687
305.394
298.274
291.326
284.547
277.936
271.489
265.205
259.079
253.11
247.293
241.626
236.106
230.728
225.49
220.388
215.419
210.58
205.868
201.278
196.809
192.457
188.218
184.09
180.07
176.155
172.342
168.628
165.01
161.487
158.055
154.711
151.454
148.281
145.19
142.178
139.242
136.382
133.595
130.879
128.231
125.65
123.135
120.682
118.291
115.96
113.687
111.471
109.309
107.201
105.144
103.138
101.181
99.2723
97.4095
95.5919
93.8181
92.0869
90.3973
88.748
87.138
85.5662
84.0315
82.5329
81.0696
79.6404
78.2445
76.881
75.549
74.2477
72.9763
71.7339
70.5197
546.829
537.145
527.294
517.31
507.228
497.082
486.903
476.723
466.571
456.472
446.451
436.527
426.72
417.044
407.514
398.141
388.932
379.897
371.04
362.365
353.876
345.575
337.461
329.535
321.797
314.245
306.877
299.691
292.685
285.856
279.2
272.714
266.395
260.24
254.245
248.406
242.72
237.183
231.791
226.541
221.429
216.451
211.605
206.886
202.292
197.818
193.462
189.221
185.09
181.068
177.152
173.337
169.622
166.004
162.48
159.047
155.703
152.445
149.271
146.179
143.166
140.23
137.369
134.58
131.863
129.214
126.632
124.114
121.66
119.268
116.934
114.659
112.44
110.276
108.165
106.106
104.097
102.137
100.225
98.359
96.5379
94.7606
93.0259
91.3325
89.6794
88.0655
86.4896
84.9508
83.4481
81.9804
80.5469
79.1465
77.7785
76.442
75.1361
73.8599
72.6126
566.409
556.184
545.78
535.235
524.588
513.879
503.143
492.415
481.726
471.106
460.579
450.168
439.892
429.766
419.805
410.018
400.416
391.005
381.79
372.774
363.959
355.347
346.937
338.729
330.721
322.912
315.298
307.877
300.646
293.602
286.74
280.056
273.548
267.211
261.041
255.034
249.185
243.492
237.95
232.555
227.303
222.191
217.214
212.37
207.653
203.062
198.592
194.24
190.002
185.877
181.859
177.947
174.137
170.427
166.813
163.293
159.865
156.525
153.271
150.101
147.012
144.003
141.07
138.212
135.426
132.711
130.064
127.483
124.968
122.515
120.124
117.791
115.517
113.298
111.134
109.023
106.964
104.955
102.994
101.081
99.214
97.3918
95.6131
93.8768
92.1817
90.5267
88.9107
87.3326
85.7915
84.2863
82.816
81.3797
79.9766
78.6057
77.2661
75.9569
74.6773
586.207
575.404
564.406
553.26
542.011
530.702
519.374
508.067
496.814
485.646
474.592
463.674
452.912
442.323
431.92
421.712
411.71
401.918
392.341
382.981
373.839
364.916
356.211
347.722
339.447
331.383
323.526
315.874
308.421
301.165
294.101
287.224
280.53
274.014
267.673
261.502
255.496
249.651
243.962
238.426
233.039
227.795
222.692
217.725
212.89
208.184
203.604
199.144
194.803
190.577
186.461
182.454
178.553
174.753
171.053
167.449
163.938
160.518
157.187
153.942
150.78
147.699
144.696
141.77
138.918
136.139
133.429
130.788
128.213
125.702
123.253
120.866
118.537
116.266
114.05
111.889
109.781
107.723
105.716
103.757
101.845
99.9793
98.1579
96.3798
94.6438
92.9489
91.2938
89.6775
88.099
86.5572
85.0511
83.5799
82.1424
80.738
79.3655
78.0243
76.7132
606.243
594.817
583.181
571.39
559.494
547.543
535.586
523.664
511.815
500.074
488.469
477.024
465.761
454.694
443.838
433.202
422.793
412.616
402.674
392.969
383.501
374.268
365.27
356.502
347.962
339.647
331.551
323.67
316
308.537
301.274
294.208
287.333
280.644
274.136
267.805
261.645
255.653
249.822
244.149
238.63
233.259
228.033
222.948
217.999
213.182
208.494
203.931
199.489
195.165
190.955
186.857
182.866
178.98
175.196
171.51
167.92
164.424
161.018
157.699
154.466
151.316
148.246
145.255
142.339
139.497
136.727
134.026
131.393
128.826
126.322
123.881
121.5
119.178
116.912
114.702
112.546
110.442
108.389
106.386
104.431
102.522
100.659
98.8406
97.065
95.3312
93.6381
91.9847
90.3698
88.7924
87.2515
85.7461
84.2753
82.8382
81.4338
80.0613
78.7196
626.54
614.439
602.113
589.623
577.031
564.393
551.762
539.187
526.709
514.365
502.185
490.194
478.412
466.856
455.537
444.464
433.643
423.078
412.771
402.721
392.927
383.386
374.097
365.054
356.253
347.69
339.359
331.256
323.373
315.707
308.252
301.001
293.949
287.092
280.422
273.936
267.628
261.492
255.524
249.719
244.072
238.579
233.234
228.034
222.974
218.051
213.259
208.596
204.057
199.639
195.338
191.151
187.075
183.105
179.24
175.476
171.81
168.239
164.76
161.371
158.07
154.853
151.718
148.663
145.686
142.783
139.954
137.197
134.508
131.886
129.329
126.836
124.404
122.032
119.719
117.462
115.259
113.11
111.013
108.967
106.97
105.02
103.117
101.258
99.4443
97.6728
95.9428
94.2533
92.603
90.9911
89.4164
87.8779
86.3746
84.9057
83.4702
82.0672
80.6958
647.123
634.287
621.208
607.96
594.613
581.234
567.883
554.613
541.47
528.492
515.711
503.154
490.838
478.78
466.989
455.474
444.238
433.283
422.61
412.216
402.099
392.254
382.677
373.364
364.307
355.501
346.941
338.62
330.53
322.667
315.024
307.595
300.372
293.351
286.526
279.89
273.438
267.164
261.064
255.131
249.361
243.749
238.29
232.98
227.814
222.787
217.896
213.137
208.504
203.996
199.608
195.335
191.176
187.127
183.184
179.344
175.604
171.961
168.413
164.956
161.589
158.307
155.11
151.994
148.957
145.997
143.111
140.298
137.555
134.881
132.273
129.73
127.249
124.829
122.469
120.166
117.919
115.726
113.587
111.499
109.46
107.471
105.529
103.632
101.781
99.9728
98.2071
96.4825
94.7981
93.1526
91.545
89.9743
88.4396
86.9398
85.474
84.0414
82.6411
668.02
654.377
640.473
626.395
612.228
598.048
583.923
569.912
556.065
542.422
529.016
515.871
503.007
490.436
478.167
466.205
454.552
443.207
432.17
421.435
410.998
400.853
390.995
381.416
372.109
363.068
354.284
345.751
337.461
329.408
321.583
313.981
306.594
299.415
292.439
285.659
279.069
272.663
266.435
260.38
254.492
248.766
243.198
237.782
232.514
227.388
222.402
217.55
212.828
208.233
203.76
199.407
195.168
191.042
187.024
183.111
179.301
175.589
171.974
168.452
165.021
161.678
158.421
155.246
152.152
149.136
146.195
143.329
140.535
137.809
135.152
132.56
130.032
127.567
125.161
122.814
120.524
118.29
116.109
113.98
111.903
109.875
107.895
105.962
104.074
102.231
100.43
98.6718
96.9541
95.2761
93.6367
92.0348
90.4696
88.9398
87.4447
85.9833
84.5548
689.265
674.727
659.91
644.921
629.856
614.806
599.848
585.047
570.455
556.115
542.058
528.309
514.882
501.79
489.037
476.626
464.556
452.825
441.427
430.356
419.605
409.167
399.033
389.196
379.646
370.376
361.376
352.639
344.156
335.919
327.92
320.152
312.607
305.277
298.157
291.239
284.516
277.983
271.634
265.461
259.461
253.627
247.954
242.436
237.07
231.851
226.773
221.833
217.025
212.347
207.794
203.363
199.048
194.848
190.759
186.777
182.898
179.121
175.442
171.858
168.366
164.964
161.648
158.417
155.268
152.198
149.206
146.289
143.444
140.67
137.965
135.327
132.754
130.244
127.795
125.406
123.074
120.799
118.579
116.411
114.296
112.23
110.214
108.245
106.323
104.445
102.611
100.82
99.0705
97.3611
95.6909
94.0588
92.464
90.9053
89.3818
87.8925
86.4365
710.894
695.355
679.521
663.52
647.47
631.473
615.617
599.972
584.594
569.525
554.794
540.423
526.424
512.804
499.565
486.707
474.223
462.109
450.356
438.956
427.899
417.176
406.775
396.688
386.904
377.414
368.207
359.273
350.605
342.192
334.027
326.1
318.404
310.93
303.672
296.623
289.774
283.121
276.655
270.371
264.263
258.326
252.553
246.94
241.481
236.171
231.007
225.982
221.094
216.336
211.707
207.201
202.814
198.544
194.386
190.338
186.395
182.555
178.815
175.171
171.621
168.162
164.791
161.507
158.305
155.184
152.141
149.175
146.283
143.463
140.712
138.029
135.413
132.86
130.369
127.939
125.568
123.254
120.995
118.79
116.638
114.537
112.486
110.483
108.527
106.616
104.75
102.927
101.147
99.4068
97.7069
96.0457
94.4222
92.8355
91.2846
89.7683
88.2858
732.949
716.279
699.3
682.17
665.03
647.999
631.174
614.631
598.425
582.596
567.17
552.165
537.586
523.437
509.714
496.412
483.521
471.032
458.933
447.213
435.86
424.861
414.204
403.877
393.869
384.168
374.763
365.643
356.798
348.218
339.894
331.817
323.978
316.368
308.98
301.806
294.838
288.07
281.494
275.105
268.895
262.86
256.993
251.289
245.742
240.347
235.1
229.996
225.03
220.198
215.496
210.919
206.464
202.128
197.905
193.793
189.789
185.89
182.091
178.391
174.785
171.272
167.849
164.513
161.261
158.091
155.001
151.988
149.05
146.185
143.391
140.666
138.007
135.413
132.883
130.414
128.004
125.653
123.358
121.117
118.93
116.794
114.709
112.673
110.685
108.743
106.846
104.992
103.182
101.413
99.6841
97.9948
96.3438
94.73
93.1525
91.6103
90.1021
755.478
737.511
719.229
700.83
682.48
664.319
646.45
628.952
611.878
595.263
579.127
563.479
548.319
533.644
519.443
505.705
492.417
479.564
467.132
455.104
443.467
432.205
421.303
410.748
400.527
390.626
381.033
371.737
362.726
353.988
345.515
337.296
329.322
321.584
314.073
306.782
299.702
292.826
286.147
279.658
273.354
267.226
261.27
255.48
249.85
244.376
239.051
233.872
228.833
223.93
219.159
214.516
209.996
205.597
201.313
197.141
193.079
189.123
185.269
181.515
177.857
174.293
170.82
167.435
164.135
160.919
157.783
154.726
151.744
148.837
146.001
143.235
140.537
137.904
135.336
132.829
130.383
127.996
125.665
123.391
121.17
119.001
116.884
114.816
112.797
110.824
108.897
107.015
105.176
103.378
101.622
99.9058
98.2282
96.5883
94.9853
93.4179
91.8851
778.532
759.057
739.277
719.439
699.744
680.346
661.356
642.85
624.873
607.452
590.596
574.305
558.569
543.375
528.708
514.548
500.878
487.676
474.925
462.605
450.698
439.187
428.055
417.286
406.864
396.776
387.008
377.546
368.379
359.495
350.882
342.531
334.431
326.573
318.948
311.547
304.362
297.385
290.61
284.029
277.634
271.421
265.382
259.511
253.804
248.254
242.857
237.607
232.5
227.531
222.695
217.989
213.409
208.949
204.608
200.38
196.264
192.254
188.348
184.543
180.835
177.223
173.702
170.271
166.926
163.666
160.487
157.387
154.365
151.417
148.541
145.737
143.001
140.331
137.726
135.184
132.703
130.282
127.918
125.61
123.357
121.157
119.009
116.911
114.862
112.86
110.905
108.994
107.127
105.303
103.52
101.778
100.075
98.4099
96.7823
95.1908
93.6343
802.167
780.907
759.383
737.905
716.709
695.964
675.778
656.217
637.313
619.076
601.501
584.574
568.276
552.581
537.465
522.903
508.869
495.338
482.287
469.693
457.534
445.791
434.444
423.475
412.868
402.607
392.676
383.061
373.75
364.729
355.988
347.514
339.298
331.329
323.598
316.095
308.813
301.744
294.879
288.212
281.734
275.441
269.324
263.38
257.6
251.98
246.515
241.2
236.029
230.998
226.102
221.337
216.7
212.185
207.789
203.509
199.341
195.281
191.326
187.473
183.719
180.061
176.495
173.021
169.633
166.331
163.111
159.972
156.91
153.924
151.011
148.17
145.398
142.693
140.054
137.478
134.964
132.51
130.114
127.775
125.492
123.262
121.084
118.957
116.879
114.85
112.867
110.93
109.037
107.186
105.378
103.611
101.883
100.194
98.5431
96.9285
95.3492
826.436
803.023
779.444
756.088
733.225
711.023
689.576
668.927
649.085
630.037
611.758
594.216
577.378
561.208
545.67
530.73
516.357
502.521
489.192
476.345
463.955
451.999
440.455
429.304
418.527
408.106
398.027
388.273
378.83
369.685
360.826
352.24
343.917
335.847
328.019
320.424
313.053
305.898
298.951
292.204
285.651
279.284
273.096
267.082
261.236
255.552
250.024
244.648
239.418
234.329
229.377
224.558
219.868
215.301
210.855
206.526
202.309
198.203
194.202
190.304
186.506
182.806
179.199
175.683
172.256
168.914
165.656
162.479
159.38
156.358
153.41
150.534
147.728
144.99
142.318
139.71
137.165
134.68
132.254
129.885
127.573
125.314
123.108
120.954
118.849
116.793
114.784
112.821
110.903
109.028
107.196
105.404
103.653
101.941
100.267
98.6305
97.0295
851.373
825.303
799.281
773.779
749.079
725.326
702.576
680.831
660.063
640.229
621.277
603.155
585.814
569.202
553.275
537.991
523.309
509.195
495.616
482.541
469.942
457.794
446.073
434.758
423.828
413.266
403.053
393.173
383.612
374.355
365.39
356.704
348.285
340.123
332.207
324.528
317.076
309.844
302.822
296.004
289.381
282.947
276.694
270.618
264.71
258.967
253.382
247.95
242.665
237.524
232.52
227.651
222.911
218.297
213.805
209.43
205.169
201.018
196.975
193.036
189.197
185.457
181.811
178.257
174.792
171.414
168.12
164.907
161.774
158.718
155.737
152.828
149.99
147.221
144.518
141.88
139.305
136.791
134.337
131.94
129.6
127.314
125.081
122.901
120.77
118.689
116.655
114.668
112.726
110.827
108.972
107.158
105.384
103.65
101.955
100.297
98.6748
876.954
847.536
818.598
790.668
763.987
738.627
714.572
691.758
670.108
649.537
629.965
611.315
593.518
576.512
560.238
544.648
529.694
515.336
501.535
488.26
475.478
463.162
451.286
439.827
428.763
418.076
407.745
397.755
388.09
378.734
369.675
360.899
352.396
344.152
336.158
328.404
320.881
313.579
306.491
299.608
292.923
286.428
280.117
273.984
268.021
262.224
256.587
251.104
245.77
240.58
235.53
230.614
225.83
221.172
216.636
212.219
207.918
203.727
199.645
195.667
191.791
188.013
184.331
180.741
177.242
173.83
170.502
167.257
164.092
161.004
157.991
155.052
152.184
149.385
146.654
143.987
141.384
138.843
136.361
133.938
131.572
129.261
127.003
124.797
122.643
120.537
118.48
116.47
114.505
112.584
110.706
108.871
107.076
105.321
103.605
101.926
100.285
902.994
869.288
836.908
806.308
777.573
750.624
725.324
701.522
679.073
657.848
637.731
618.622
600.433
583.088
566.519
550.668
535.483
520.917
506.93
493.485
480.548
468.089
456.082
444.5
433.323
422.528
412.097
402.012
392.257
382.817
373.677
364.824
356.246
347.932
339.87
332.051
324.464
317.102
309.954
303.014
296.274
289.725
283.362
277.178
271.167
265.322
259.637
254.109
248.73
243.497
238.404
233.447
228.622
223.924
219.349
214.894
210.555
206.328
202.209
198.196
194.286
190.474
186.758
183.136
179.604
176.161
172.802
169.526
166.331
163.214
160.173
157.205
154.309
151.483
148.724
146.031
143.402
140.835
138.328
135.88
133.489
131.154
128.872
126.643
124.466
122.338
120.258
118.226
116.24
114.298
112.399
110.543
108.728
106.953
105.217
103.52
101.859
928.88
889.714
853.438
820.083
789.372
760.973
734.579
709.932
686.816
665.051
644.489
625.009
606.504
588.887
572.082
556.023
540.653
525.921
511.784
498.202
485.14
472.566
460.451
448.77
437.499
426.617
416.103
405.94
396.11
386.599
377.391
368.473
359.833
351.459
343.339
335.464
327.824
320.409
313.21
306.221
299.432
292.837
286.429
280.2
274.145
268.258
262.533
256.963
251.545
246.273
241.142
236.148
231.287
226.553
221.943
217.454
213.08
208.82
204.669
200.624
196.681
192.839
189.093
185.44
181.879
178.406
175.019
171.715
168.493
165.348
162.28
159.286
156.364
153.512
150.728
148.011
145.357
142.766
140.236
137.764
135.351
132.993
130.689
128.438
126.239
124.09
121.99
119.937
117.93
115.968
114.05
112.174
110.34
108.546
106.792
105.076
103.397
952.909
907.252
867.047
831.214
798.859
769.315
742.088
716.812
693.206
671.049
650.168
630.419
611.688
593.875
576.899
560.688
545.183
530.33
516.083
502.399
489.243
476.582
464.387
452.63
441.287
430.337
419.759
409.534
399.646
390.078
380.815
371.845
363.154
354.731
346.564
338.643
330.957
323.499
316.258
309.227
302.398
295.763
289.316
283.049
276.957
271.033
265.272
259.667
254.214
248.908
243.744
238.717
233.823
229.058
224.417
219.897
215.493
211.203
207.022
202.948
198.978
195.107
191.333
187.654
184.066
180.566
177.153
173.824
170.576
167.406
164.314
161.296
158.35
155.474
152.667
149.926
147.25
144.637
142.085
139.592
137.157
134.778
132.453
130.182
127.963
125.794
123.674
121.601
119.575
117.595
115.658
113.764
111.912
110.1
108.328
106.595
104.899
970.853
919.337
876.283
838.868
805.537
775.339
747.647
722.023
698.146
675.773
654.712
634.813
615.952
598.026
580.95
564.649
549.062
534.134
519.817
506.069
492.853
480.134
467.884
456.075
444.683
433.685
423.061
412.792
402.86
393.251
383.948
374.938
366.209
357.747
349.543
341.586
333.865
326.371
319.096
312.031
305.169
298.502
292.022
285.724
279.6
273.646
267.854
262.219
256.737
251.402
246.209
241.154
236.232
231.439
226.77
222.223
217.793
213.476
209.27
205.17
201.174
197.278
193.48
189.776
186.164
182.641
179.204
175.851
172.58
169.388
166.273
163.233
160.265
157.368
154.54
151.778
149.081
146.447
143.875
141.362
138.907
136.508
134.165
131.875
129.636
127.449
125.31
123.22
121.176
119.178
117.224
115.312
113.443
111.615
109.826
108.077
106.365
)
;

boundaryField
{
    leftBoundary
    {
        type            calculated;
        value           nonuniform 0();
    }
    rightBoundary
    {
        type            calculated;
        value           nonuniform 0();
    }
    ground
    {
        type            calculated;
        value           uniform 0;
    }
    frontAndBack
    {
        type            empty;
    }
    highVoltage
    {
        type            calculated;
        value           nonuniform 0();
    }
    dielectric_to_region0
    {
        type            calculated;
        value           nonuniform List<scalar> 
97
(
972.677
921.148
878.081
840.653
807.309
777.097
749.393
723.755
699.865
677.478
656.404
636.492
617.617
599.677
582.587
566.273
550.673
535.731
521.4
507.638
494.408
481.676
469.412
457.59
446.184
435.173
424.535
414.252
404.307
394.684
385.368
376.345
367.602
359.127
350.91
342.939
335.205
327.698
320.41
313.333
306.457
299.777
293.285
286.974
280.838
274.871
269.066
263.42
257.925
252.578
247.373
242.306
237.372
232.567
227.887
223.328
218.886
214.558
210.341
206.23
202.222
198.315
194.506
190.791
187.169
183.635
180.188
176.825
173.543
170.341
167.216
164.166
161.188
158.281
155.443
152.672
149.965
147.322
144.74
142.218
139.754
137.346
134.994
132.695
130.448
128.252
126.105
124.006
121.954
119.947
117.985
116.066
114.189
112.353
110.556
108.799
107.079
)
;
    }
    procBoundary3to0
    {
        type            processor;
        value           nonuniform List<scalar> 
57
(
1.10564
3.3165
5.52608
7.73358
9.93815
12.1389
14.3351
16.5257
18.71
20.8873
23.0566
25.2173
27.3684
29.5091
31.6387
33.7563
35.8613
37.9528
40.0301
42.0925
44.1393
46.1696
48.9847
48.9847
51.0118
53.02
55.9245
62.9933
61.9326
60.8959
59.8826
55.9245
58.8921
62.9933
65.1323
67.2458
69.3334
71.3941
73.4274
75.4324
77.4085
79.3552
81.272
83.1583
85.0136
86.8372
88.6287
90.3875
92.1132
93.8054
95.464
97.0885
98.6787
100.234
101.754
103.24
104.689
)
;
    }
    procBoundary3to2
    {
        type            processor;
        value           nonuniform List<scalar> 
50
(
8.77042
26.3131
43.8612
61.4185
78.9888
96.5757
114.183
131.815
149.475
167.168
184.898
202.669
220.486
238.354
256.277
274.261
292.313
310.436
328.639
346.927
365.309
383.79
402.381
421.09
439.926
458.901
478.027
497.315
516.782
536.442
556.313
576.416
596.772
617.409
638.355
659.644
681.317
703.419
726.006
749.146
772.919
797.426
822.793
849.181
876.798
905.913
936.854
969.902
1004.65
1036.66
)
;
    }
}


// ************************************************************************* //
