/*--------------------------------*- C++ -*----------------------------------*\
  =========                 |
  \\      /  F ield         | OpenFOAM: The Open Source CFD Toolbox
   \\    /   O peration     | Website:  https://openfoam.org
    \\  /    A nd           | Version:  7
     \\/     M anipulation  |
\*---------------------------------------------------------------------------*/
FoamFile
{
    version     2.0;
    format      ascii;
    class       volScalarField;
    location    "2e-13/dielectric";
    object      voltDext;
}
// * * * * * * * * * * * * * * * * * * * * * * * * * * * * * * * * * * * * * //

dimensions      [1 2 -3 0 0 -1 0];

internalField   nonuniform List<scalar> 
5050
(
11.9797
11.9796
11.9795
11.9792
11.9789
11.9785
11.978
11.9774
11.9768
11.976
11.9752
11.9742
11.9732
11.972
11.9708
11.9694
11.9679
11.9663
11.9645
11.9626
11.9606
11.9584
11.956
11.9535
11.9508
11.9479
11.9448
11.9415
11.938
11.9342
11.9302
11.9259
11.9213
11.9164
11.9112
11.9057
11.8998
11.8935
11.8869
11.8798
11.8722
11.8642
11.8557
11.8466
11.837
11.8267
11.8159
11.8043
11.7921
11.779
11.7652
11.7506
11.7351
11.7186
11.7012
11.6827
11.6631
11.6424
11.6205
11.5973
11.5727
11.5468
11.5194
11.4905
11.4599
11.4277
11.3937
11.3578
11.3201
11.2804
11.2386
11.1947
11.1485
11.1001
11.0493
10.996
10.9403
10.8819
10.8209
10.7573
10.6908
10.6216
10.5495
10.4746
10.3967
10.3159
10.2322
10.1455
10.0559
9.9634
9.86801
9.76979
9.66878
9.56504
9.45867
9.34973
9.23833
9.12458
9.00859
8.89049
35.9392
35.939
35.9385
35.9378
35.9368
35.9356
35.9341
35.9324
35.9304
35.9281
35.9256
35.9228
35.9196
35.9162
35.9124
35.9083
35.9038
35.8989
35.8937
35.888
35.8819
35.8753
35.8683
35.8607
35.8526
35.844
35.8347
35.8248
35.8142
35.8029
35.7908
35.778
35.7643
35.7496
35.7341
35.7175
35.6998
35.681
35.6611
35.6398
35.6172
35.5931
35.5675
35.5404
35.5115
35.4808
35.4482
35.4136
35.3769
35.3379
35.2966
35.2527
35.2062
35.1569
35.1046
35.0492
34.9906
34.9285
34.8627
34.7932
34.7196
34.6419
34.5598
34.473
34.3814
34.2848
34.1828
34.0754
33.9623
33.8432
33.7179
33.5862
33.4478
33.3026
33.1502
32.9906
32.8234
32.6484
32.4655
32.2746
32.0753
31.8677
31.6515
31.4266
31.193
30.9506
30.6995
30.4394
30.1706
29.8931
29.6069
29.3121
29.0091
28.6978
28.3786
28.0517
27.7173
27.376
27.0279
26.6734
59.8989
59.8985
59.8977
59.8965
59.8949
59.8929
59.8905
59.8876
59.8843
59.8805
59.8763
59.8716
59.8664
59.8606
59.8543
59.8475
59.84
59.832
59.8232
59.8138
59.8037
59.7928
59.781
59.7685
59.755
59.7406
59.7252
59.7087
59.6911
59.6723
59.6523
59.6309
59.6081
59.5838
59.5579
59.5303
59.501
59.4698
59.4365
59.4011
59.3635
59.3235
59.281
59.2358
59.1878
59.1368
59.0826
59.0251
58.964
58.8992
58.8304
58.7575
58.6801
58.5981
58.5111
58.419
58.3214
58.2181
58.1088
57.9931
57.8708
57.7414
57.6047
57.4603
57.3079
57.1471
56.9775
56.7988
56.6105
56.4122
56.2037
55.9844
55.7541
55.5122
55.2586
54.9927
54.7142
54.4228
54.1182
53.8001
53.4682
53.1222
52.762
52.3874
51.9981
51.5942
51.1756
50.7422
50.2941
49.8314
49.3543
48.8629
48.3575
47.8385
47.3061
46.761
46.2034
45.6341
45.0535
44.4623
83.8591
83.8585
83.8574
83.8557
83.8535
83.8507
83.8473
83.8433
83.8387
83.8334
83.8275
83.8209
83.8137
83.8057
83.7969
83.7873
83.7769
83.7657
83.7535
83.7404
83.7262
83.711
83.6946
83.6771
83.6583
83.6382
83.6167
83.5938
83.5692
83.543
83.515
83.4852
83.4534
83.4195
83.3834
83.345
83.304
83.2605
83.2141
83.1648
83.1123
83.0565
82.9972
82.9341
82.8671
82.796
82.7204
82.6401
82.5549
82.4644
82.3684
82.2666
82.1586
82.0442
81.9228
81.7942
81.6581
81.5138
81.3612
81.1997
81.0288
80.8482
80.6574
80.4557
80.2429
80.0183
79.7814
79.5316
79.2685
78.9916
78.7001
78.3937
78.0717
77.7337
77.3791
77.0073
76.6179
76.2105
75.7845
75.3395
74.8751
74.3911
73.887
73.3627
72.8179
72.2525
71.6664
71.0596
70.4321
69.7842
69.1159
68.4276
67.7196
66.9924
66.2466
65.4827
64.7013
63.9034
63.0897
62.2611
107.82
107.819
107.818
107.815
107.813
107.809
107.805
107.8
107.794
107.787
107.779
107.771
107.762
107.751
107.74
107.728
107.715
107.7
107.685
107.668
107.65
107.63
107.609
107.587
107.563
107.537
107.51
107.48
107.449
107.415
107.38
107.342
107.301
107.257
107.211
107.162
107.11
107.054
106.995
106.932
106.864
106.793
106.717
106.636
106.551
106.46
106.363
106.26
106.151
106.035
105.912
105.782
105.644
105.497
105.342
105.177
105.003
104.818
104.622
104.416
104.197
103.965
103.721
103.462
103.19
102.902
102.598
102.278
101.941
101.585
101.212
100.819
100.406
99.9718
99.5167
99.0396
98.5398
98.0167
97.4697
96.8982
96.3018
95.68
95.0323
94.3585
93.6583
92.9315
92.178
91.3977
90.5907
89.7573
88.8975
88.0119
87.1009
86.1651
85.2051
84.2217
83.2159
82.1885
81.1408
80.0738
131.781
131.78
131.779
131.776
131.772
131.768
131.763
131.757
131.749
131.741
131.732
131.722
131.711
131.698
131.685
131.67
131.654
131.636
131.617
131.597
131.575
131.551
131.526
131.499
131.469
131.438
131.405
131.369
131.331
131.29
131.247
131.2
131.151
131.098
131.042
130.982
130.919
130.851
130.779
130.702
130.621
130.534
130.442
130.344
130.239
130.129
130.011
129.886
129.754
129.613
129.464
129.305
129.137
128.959
128.77
128.57
128.358
128.133
127.895
127.643
127.377
127.096
126.798
126.483
126.151
125.801
125.431
125.041
124.63
124.198
123.742
123.263
122.76
122.231
121.676
121.095
120.485
119.847
119.179
118.482
117.754
116.995
116.204
115.381
114.525
113.637
112.716
111.762
110.776
109.757
108.705
107.622
106.507
105.362
104.187
102.983
101.752
100.494
99.2111
97.9045
155.743
155.742
155.74
155.737
155.733
155.728
155.722
155.715
155.706
155.697
155.686
155.674
155.661
155.646
155.63
155.613
155.594
155.573
155.551
155.527
155.501
155.474
155.444
155.412
155.378
155.341
155.302
155.26
155.215
155.168
155.117
155.062
155.004
154.943
154.877
154.807
154.732
154.652
154.568
154.478
154.382
154.28
154.172
154.057
153.935
153.805
153.667
153.52
153.365
153.199
153.024
152.838
152.641
152.431
152.209
151.974
151.725
151.461
151.182
150.886
150.573
150.242
149.892
149.522
149.132
148.719
148.284
147.826
147.342
146.833
146.297
145.733
145.14
144.517
143.863
143.177
142.459
141.706
140.919
140.096
139.237
138.341
137.407
136.435
135.425
134.376
133.287
132.16
130.994
129.788
128.544
127.263
125.944
124.588
123.198
121.773
120.314
118.825
117.305
115.757
179.707
179.705
179.703
179.7
179.695
179.689
179.682
179.674
179.664
179.653
179.641
179.627
179.612
179.595
179.577
179.557
179.536
179.512
179.487
179.459
179.43
179.398
179.364
179.328
179.289
179.247
179.202
179.154
179.103
179.048
178.99
178.928
178.861
178.791
178.715
178.635
178.55
178.459
178.362
178.259
178.15
178.033
177.909
177.778
177.638
177.489
177.331
177.163
176.985
176.796
176.595
176.382
176.156
175.916
175.662
175.393
175.107
174.805
174.484
174.145
173.787
173.407
173.006
172.582
172.134
171.661
171.161
170.635
170.08
169.495
168.879
168.231
167.549
166.833
166.082
165.293
164.466
163.6
162.694
161.747
160.757
159.725
158.649
157.529
156.364
155.153
153.898
152.597
151.25
149.858
148.422
146.941
145.417
143.85
142.243
140.595
138.908
137.185
135.427
133.637
203.671
203.67
203.667
203.663
203.658
203.651
203.644
203.634
203.623
203.611
203.597
203.582
203.565
203.546
203.526
203.504
203.479
203.453
203.424
203.394
203.361
203.325
203.287
203.246
203.202
203.155
203.105
203.051
202.994
202.933
202.867
202.797
202.723
202.644
202.559
202.469
202.373
202.271
202.163
202.047
201.924
201.794
201.655
201.507
201.35
201.183
201.005
200.817
200.617
200.404
200.179
199.939
199.685
199.416
199.13
198.827
198.506
198.166
197.806
197.425
197.021
196.594
196.143
195.665
195.161
194.628
194.066
193.472
192.847
192.187
191.493
190.762
189.994
189.186
188.337
187.447
186.513
185.535
184.51
183.439
182.32
181.153
179.935
178.667
177.347
175.976
174.554
173.079
171.552
169.973
168.343
166.663
164.933
163.154
161.327
159.455
157.539
155.581
153.583
151.547
227.637
227.635
227.632
227.628
227.622
227.615
227.606
227.596
227.584
227.571
227.555
227.538
227.52
227.499
227.476
227.452
227.425
227.396
227.364
227.331
227.294
227.255
227.213
227.167
227.119
227.067
227.011
226.952
226.889
226.821
226.749
226.672
226.589
226.502
226.408
226.309
226.203
226.09
225.97
225.843
225.707
225.562
225.408
225.245
225.071
224.887
224.69
224.482
224.261
224.026
223.776
223.511
223.23
222.932
222.615
222.28
221.925
221.548
221.149
220.726
220.279
219.806
219.305
218.776
218.216
217.625
217.001
216.342
215.648
214.915
214.144
213.332
212.477
211.579
210.635
209.644
208.604
207.515
206.374
205.18
203.933
202.63
201.271
199.856
198.383
196.851
195.261
193.613
191.905
190.139
188.315
186.434
184.497
182.504
180.458
178.36
176.212
174.017
171.775
169.492
251.604
251.602
251.599
251.595
251.588
251.58
251.571
251.56
251.547
251.532
251.515
251.497
251.476
251.454
251.429
251.402
251.373
251.341
251.307
251.27
251.23
251.187
251.141
251.092
251.039
250.982
250.922
250.857
250.788
250.714
250.635
250.551
250.461
250.366
250.264
250.155
250.04
249.917
249.785
249.646
249.498
249.34
249.172
248.994
248.804
248.602
248.388
248.16
247.918
247.661
247.389
247.099
246.792
246.466
246.12
245.753
245.364
244.952
244.515
244.053
243.563
243.045
242.496
241.916
241.303
240.655
239.971
239.248
238.486
237.682
236.835
235.943
235.005
234.017
232.979
231.889
230.745
229.546
228.29
226.975
225.6
224.164
222.665
221.103
219.476
217.785
216.028
214.205
212.317
210.363
208.345
206.262
204.116
201.909
199.641
197.315
194.933
192.497
190.011
187.477
275.573
275.571
275.568
275.562
275.556
275.547
275.537
275.525
275.511
275.495
275.477
275.457
275.435
275.41
275.384
275.355
275.323
275.289
275.252
275.212
275.169
275.123
275.073
275.02
274.963
274.902
274.836
274.766
274.692
274.612
274.527
274.436
274.339
274.236
274.126
274.008
273.884
273.751
273.609
273.458
273.298
273.128
272.946
272.753
272.548
272.33
272.099
271.852
271.591
271.313
271.018
270.705
270.372
270.019
269.645
269.248
268.827
268.38
267.907
267.406
266.875
266.314
265.719
265.09
264.425
263.721
262.979
262.194
261.366
260.493
259.572
258.602
257.581
256.506
255.376
254.189
252.942
251.635
250.264
248.829
247.328
245.759
244.122
242.414
240.635
238.784
236.86
234.864
232.794
230.652
228.438
226.153
223.797
221.373
218.882
216.326
213.707
211.029
208.295
205.507
299.543
299.541
299.538
299.532
299.525
299.516
299.505
299.492
299.477
299.46
299.441
299.419
299.396
299.37
299.341
299.31
299.276
299.24
299.2
299.157
299.111
299.062
299.009
298.952
298.891
298.825
298.755
298.68
298.601
298.515
298.424
298.327
298.223
298.113
297.995
297.869
297.736
297.593
297.442
297.281
297.109
296.926
296.732
296.525
296.306
296.072
295.824
295.56
295.28
294.982
294.665
294.33
293.973
293.594
293.193
292.767
292.315
291.836
291.328
290.789
290.219
289.615
288.976
288.3
287.584
286.828
286.028
285.183
284.292
283.351
282.358
281.312
280.21
279.05
277.83
276.547
275.2
273.786
272.303
270.75
269.124
267.424
265.649
263.796
261.865
259.855
257.765
255.595
253.344
251.014
248.603
246.114
243.547
240.904
238.187
235.399
232.541
229.617
226.631
223.586
323.515
323.513
323.509
323.504
323.496
323.486
323.475
323.461
323.445
323.427
323.406
323.384
323.359
323.331
323.301
323.268
323.232
323.193
323.151
323.106
323.057
323.005
322.948
322.888
322.823
322.753
322.679
322.6
322.515
322.424
322.327
322.224
322.114
321.997
321.872
321.738
321.597
321.445
321.284
321.113
320.931
320.737
320.53
320.31
320.077
319.829
319.565
319.284
318.986
318.669
318.333
317.975
317.596
317.193
316.765
316.311
315.83
315.32
314.778
314.205
313.597
312.952
312.271
311.549
310.785
309.977
309.123
308.22
307.266
306.26
305.198
304.078
302.897
301.654
300.346
298.97
297.524
296.006
294.413
292.743
290.995
289.165
287.253
285.257
283.175
281.006
278.751
276.407
273.975
271.455
268.847
266.153
263.373
260.51
257.565
254.541
251.441
248.268
245.027
241.72
347.489
347.487
347.483
347.477
347.469
347.459
347.446
347.432
347.415
347.396
347.375
347.351
347.324
347.295
347.263
347.229
347.191
347.15
347.106
347.058
347.007
346.951
346.892
346.828
346.76
346.686
346.608
346.524
346.435
346.339
346.237
346.129
346.013
345.889
345.757
345.616
345.467
345.307
345.137
344.956
344.764
344.559
344.341
344.109
343.863
343.601
343.322
343.026
342.711
342.376
342.021
341.643
341.242
340.816
340.364
339.884
339.375
338.834
338.261
337.654
337.01
336.328
335.605
334.839
334.029
333.172
332.266
331.307
330.294
329.224
328.095
326.904
325.648
324.324
322.93
321.463
319.921
318.301
316.6
314.815
312.946
310.988
308.941
306.803
304.571
302.245
299.824
297.307
294.693
291.983
289.177
286.277
283.282
280.196
277.021
273.759
270.414
266.988
263.487
259.915
371.465
371.463
371.459
371.453
371.444
371.433
371.421
371.405
371.388
371.368
371.345
371.32
371.293
371.262
371.229
371.193
371.153
371.11
371.064
371.014
370.96
370.902
370.84
370.773
370.701
370.625
370.543
370.455
370.361
370.261
370.154
370.04
369.918
369.789
369.651
369.503
369.346
369.179
369.001
368.811
368.61
368.395
368.166
367.923
367.665
367.39
367.097
366.786
366.456
366.104
365.731
365.334
364.913
364.465
363.99
363.485
362.95
362.382
361.779
361.14
360.462
359.743
358.982
358.175
357.321
356.417
355.46
354.449
353.379
352.249
351.055
349.795
348.465
347.064
345.587
344.032
342.396
340.676
338.869
336.973
334.984
332.901
330.721
328.442
326.062
323.579
320.993
318.303
315.507
312.607
309.602
306.494
303.284
299.973
296.564
293.061
289.466
285.784
282.019
278.177
395.443
395.441
395.437
395.43
395.421
395.41
395.397
395.381
395.363
395.342
395.319
395.293
395.264
395.232
395.197
395.16
395.118
395.074
395.025
394.973
394.917
394.857
394.792
394.722
394.648
394.568
394.483
394.391
394.294
394.189
394.078
393.959
393.833
393.697
393.553
393.4
393.236
393.062
392.876
392.679
392.468
392.244
392.006
391.753
391.483
391.196
390.891
390.566
390.221
389.854
389.464
389.05
388.61
388.142
387.645
387.118
386.558
385.964
385.333
384.664
383.954
383.202
382.404
381.558
380.663
379.714
378.71
377.648
376.524
375.336
374.081
372.755
371.355
369.879
368.322
366.682
364.955
363.138
361.229
359.223
357.118
354.911
352.6
350.182
347.655
345.017
342.267
339.404
336.427
333.336
330.131
326.814
323.385
319.847
316.202
312.454
308.606
304.662
300.629
296.51
419.424
419.422
419.417
419.41
419.401
419.39
419.376
419.359
419.34
419.319
419.295
419.268
419.238
419.205
419.169
419.13
419.087
419.041
418.991
418.937
418.879
418.816
418.749
418.677
418.6
418.517
418.429
418.334
418.233
418.125
418.009
417.886
417.755
417.615
417.466
417.306
417.137
416.956
416.764
416.559
416.341
416.108
415.861
415.598
415.318
415.02
414.703
414.366
414.008
413.627
413.222
412.792
412.334
411.848
411.332
410.783
410.201
409.582
408.926
408.229
407.489
406.705
405.874
404.992
404.057
403.067
402.019
400.909
399.734
398.491
397.177
395.789
394.322
392.774
391.141
389.418
387.604
385.694
383.684
381.572
379.353
377.025
374.585
372.03
369.358
366.567
363.654
360.619
357.46
354.178
350.773
347.245
343.596
339.828
335.943
331.946
327.841
323.631
319.323
314.923
443.407
443.404
443.4
443.392
443.383
443.371
443.357
443.34
443.32
443.298
443.273
443.246
443.215
443.181
443.144
443.103
443.06
443.012
442.96
442.905
442.845
442.78
442.711
442.637
442.557
442.472
442.381
442.283
442.179
442.068
441.949
441.822
441.686
441.542
441.388
441.224
441.049
440.862
440.664
440.452
440.227
439.987
439.732
439.46
439.171
438.864
438.536
438.188
437.818
437.424
437.006
436.561
436.087
435.585
435.05
434.482
433.879
433.239
432.558
431.836
431.07
430.256
429.393
428.478
427.507
426.479
425.389
424.234
423.012
421.717
420.348
418.901
417.371
415.754
414.048
412.247
410.349
408.348
406.242
404.026
401.697
399.252
396.686
393.997
391.181
388.238
385.164
381.957
378.618
375.144
371.537
367.797
363.926
359.925
355.798
351.548
347.18
342.698
338.11
333.421
467.392
467.389
467.384
467.377
467.367
467.355
467.341
467.323
467.303
467.28
467.255
467.226
467.195
467.16
467.122
467.081
467.036
466.987
466.934
466.877
466.815
466.749
466.678
466.602
466.52
466.433
466.339
466.239
466.132
466.018
465.896
465.765
465.626
465.478
465.32
465.151
464.972
464.78
464.576
464.359
464.128
463.881
463.619
463.34
463.043
462.727
462.39
462.032
461.651
461.246
460.816
460.357
459.87
459.352
458.802
458.217
457.595
456.935
456.233
455.488
454.697
453.857
452.965
452.019
451.016
449.952
448.823
447.627
446.361
445.019
443.598
442.095
440.505
438.825
437.049
435.174
433.195
431.109
428.91
426.595
424.159
421.598
418.909
416.089
413.133
410.039
406.805
403.429
399.908
396.244
392.434
388.481
384.385
380.148
375.774
371.267
366.632
361.873
356.998
352.013
491.379
491.376
491.372
491.364
491.354
491.342
491.327
491.309
491.289
491.266
491.239
491.21
491.178
491.143
491.104
491.062
491.016
490.966
490.912
490.853
490.791
490.723
490.651
490.573
490.489
490.4
490.304
490.202
490.093
489.976
489.851
489.718
489.576
489.424
489.263
489.09
488.907
488.711
488.502
488.28
488.044
487.792
487.523
487.238
486.934
486.61
486.266
485.899
485.509
485.094
484.653
484.183
483.684
483.153
482.588
481.988
481.35
480.672
479.951
479.186
478.373
477.509
476.592
475.618
474.585
473.488
472.325
471.092
469.784
468.399
466.931
465.376
463.731
461.99
460.15
458.204
456.15
453.981
451.694
449.283
446.744
444.073
441.265
438.316
435.223
431.981
428.589
425.044
421.344
417.488
413.475
409.307
404.984
400.509
395.885
391.115
386.206
381.164
375.995
370.707
515.369
515.366
515.361
515.354
515.344
515.331
515.316
515.298
515.277
515.254
515.227
515.197
515.165
515.129
515.089
515.046
514.999
514.949
514.894
514.834
514.771
514.702
514.628
514.549
514.464
514.373
514.276
514.172
514.061
513.942
513.815
513.679
513.535
513.381
513.216
513.041
512.854
512.654
512.442
512.216
511.975
511.718
511.445
511.154
510.844
510.514
510.163
509.789
509.392
508.968
508.518
508.039
507.529
506.987
506.41
505.797
505.145
504.452
503.715
502.931
502.099
501.214
500.275
499.277
498.217
497.092
495.898
494.631
493.286
491.861
490.35
488.748
487.052
485.256
483.355
481.344
479.219
476.973
474.602
472.1
469.463
466.685
463.761
460.688
457.46
454.074
450.526
446.814
442.935
438.888
434.672
430.288
425.736
421.019
416.14
411.103
405.915
400.581
395.11
389.51
539.361
539.359
539.354
539.346
539.336
539.323
539.307
539.289
539.268
539.244
539.218
539.188
539.154
539.118
539.078
539.034
538.987
538.936
538.88
538.82
538.755
538.686
538.611
538.531
538.445
538.353
538.254
538.149
538.036
537.916
537.787
537.65
537.503
537.347
537.18
537.003
536.813
536.611
536.396
536.166
535.922
535.662
535.384
535.089
534.774
534.44
534.083
533.704
533.3
532.87
532.412
531.925
531.407
530.855
530.269
529.645
528.981
528.275
527.524
526.726
525.877
524.975
524.016
522.997
521.915
520.765
519.543
518.246
516.87
515.409
513.859
512.215
510.473
508.626
506.67
504.599
502.407
500.09
497.64
495.053
492.322
489.442
486.408
483.214
479.856
476.328
472.628
468.751
464.695
460.458
456.038
451.436
446.653
441.69
436.552
431.243
425.769
420.137
414.355
408.433
563.356
563.353
563.348
563.341
563.33
563.317
563.302
563.284
563.262
563.238
563.211
563.181
563.148
563.111
563.07
563.026
562.979
562.927
562.871
562.81
562.745
562.675
562.6
562.519
562.432
562.339
562.24
562.133
562.02
561.898
561.768
561.63
561.482
561.324
561.156
560.976
560.785
560.581
560.363
560.132
559.885
559.622
559.342
559.043
558.725
558.387
558.026
557.642
557.234
556.799
556.335
555.842
555.318
554.759
554.165
553.532
552.859
552.143
551.381
550.571
549.709
548.792
547.818
546.781
545.68
544.508
543.264
541.942
540.537
539.046
537.462
535.781
533.997
532.106
530.1
527.974
525.722
523.338
520.816
518.148
515.33
512.354
509.214
505.905
502.421
498.756
494.906
490.867
486.636
482.209
477.586
472.765
467.749
462.538
457.136
451.548
445.781
439.841
433.739
427.485
587.353
587.351
587.346
587.338
587.328
587.315
587.299
587.281
587.259
587.235
587.208
587.178
587.144
587.107
587.067
587.022
586.974
586.922
586.866
586.805
586.74
586.669
586.594
586.512
586.425
586.332
586.232
586.125
586.011
585.889
585.758
585.619
585.47
585.311
585.142
584.962
584.769
584.564
584.345
584.112
583.864
583.599
583.317
583.017
582.697
582.356
581.993
581.606
581.194
580.756
580.289
579.792
579.262
578.699
578.099
577.46
576.781
576.057
575.287
574.468
573.596
572.668
571.681
570.631
569.514
568.326
567.063
565.72
564.292
562.774
561.162
559.449
557.63
555.699
553.65
551.475
549.169
546.725
544.136
541.395
538.495
535.429
532.19
528.771
525.166
521.369
517.374
513.176
508.772
504.157
499.331
494.291
489.039
483.576
477.906
472.033
465.964
459.709
453.276
446.678
611.353
611.351
611.346
611.338
611.328
611.315
611.299
611.281
611.259
611.235
611.208
611.177
611.144
611.107
611.066
611.022
610.974
610.922
610.866
610.805
610.739
610.669
610.593
610.512
610.425
610.331
610.231
610.124
610.01
609.887
609.757
609.617
609.468
609.31
609.14
608.959
608.766
608.561
608.342
608.108
607.859
607.594
607.311
607.01
606.689
606.347
605.983
605.595
605.181
604.741
604.272
603.773
603.241
602.675
602.072
601.429
600.746
600.018
599.242
598.417
597.538
596.603
595.607
594.547
593.419
592.219
590.941
589.582
588.136
586.598
584.963
583.224
581.375
579.411
577.324
575.108
572.755
570.258
567.609
564.801
561.827
558.677
555.345
551.823
548.103
544.179
540.044
535.692
531.118
526.318
521.289
516.03
510.54
504.822
498.878
492.713
486.336
479.754
472.979
466.023
635.356
635.353
635.348
635.34
635.33
635.317
635.302
635.283
635.262
635.238
635.211
635.181
635.147
635.11
635.07
635.026
634.978
634.926
634.87
634.809
634.744
634.674
634.598
634.517
634.43
634.337
634.237
634.131
634.016
633.895
633.764
633.625
633.477
633.318
633.149
632.969
632.776
632.571
632.352
632.119
631.871
631.606
631.323
631.023
630.702
630.36
629.996
629.609
629.195
628.755
628.286
627.787
627.254
626.688
626.084
625.44
624.755
624.025
623.248
622.419
621.537
620.598
619.597
618.531
617.397
616.188
614.901
613.531
612.072
610.52
608.867
607.108
605.237
603.246
601.128
598.877
596.484
593.942
591.241
588.375
585.333
582.108
578.69
575.072
571.245
567.2
562.93
558.429
553.689
548.707
543.478
537.999
532.27
526.293
520.07
513.607
506.911
499.992
492.862
485.535
659.361
659.358
659.353
659.346
659.335
659.323
659.307
659.289
659.268
659.244
659.217
659.187
659.154
659.117
659.077
659.033
658.986
658.934
658.879
658.818
658.754
658.684
658.609
658.528
658.442
658.349
658.25
658.144
658.031
657.91
657.781
657.642
657.495
657.337
657.169
656.99
656.799
656.595
656.378
656.146
655.899
655.635
655.354
655.055
654.736
654.396
654.034
653.648
653.236
652.798
652.331
651.833
651.303
650.737
650.135
649.493
648.809
648.08
647.303
646.476
645.594
644.654
643.652
642.585
641.448
640.236
638.945
637.569
636.103
634.541
632.877
631.105
629.217
627.207
625.066
622.788
620.363
617.783
615.039
612.122
609.023
605.731
602.237
598.531
594.604
590.446
586.049
581.404
576.504
571.343
565.915
560.218
554.249
548.01
541.503
534.733
527.709
520.441
512.942
505.227
683.368
683.366
683.361
683.353
683.343
683.331
683.315
683.297
683.276
683.253
683.226
683.197
683.164
683.128
683.088
683.045
682.998
682.947
682.892
682.832
682.768
682.699
682.625
682.545
682.46
682.368
682.27
682.166
682.054
681.934
681.806
681.669
681.523
681.367
681.201
681.024
680.834
680.633
680.417
680.188
679.943
679.682
679.404
679.107
678.791
678.454
678.095
677.713
677.305
676.87
676.406
675.912
675.385
674.824
674.226
673.588
672.908
672.183
671.41
670.587
669.708
668.772
667.773
666.709
665.574
664.363
663.073
661.697
660.229
658.664
656.996
655.217
653.32
651.298
649.143
646.845
644.397
641.789
639.011
636.053
632.905
629.556
625.995
622.211
618.194
613.932
609.416
604.635
599.581
594.245
588.623
582.708
576.499
569.995
563.198
556.114
548.751
541.121
533.237
525.117
707.378
707.376
707.371
707.364
707.354
707.341
707.326
707.308
707.288
707.265
707.238
707.209
707.177
707.141
707.102
707.06
707.014
706.963
706.909
706.851
706.787
706.719
706.646
706.568
706.484
706.394
706.297
706.194
706.084
705.966
705.84
705.705
705.561
705.408
705.244
705.069
704.882
704.683
704.471
704.245
704.004
703.746
703.472
703.179
702.867
702.535
702.18
701.802
701.4
700.97
700.512
700.024
699.503
698.948
698.356
697.725
697.052
696.334
695.568
694.752
693.881
692.952
691.961
690.903
689.775
688.571
687.286
685.916
684.453
682.891
681.225
679.447
677.549
675.523
673.361
671.053
668.591
665.964
663.162
660.174
656.988
653.593
649.976
646.125
642.028
637.672
633.046
628.138
622.938
617.435
611.622
605.493
599.043
592.272
585.18
577.774
570.061
562.054
553.768
545.223
731.391
731.389
731.384
731.376
731.367
731.354
731.34
731.322
731.302
731.279
731.254
731.225
731.193
731.159
731.12
731.079
731.033
730.984
730.931
730.873
730.812
730.745
730.673
730.596
730.514
730.426
730.331
730.23
730.122
730.006
729.882
729.75
729.609
729.458
729.297
729.126
728.943
728.748
728.539
728.317
728.08
727.827
727.558
727.271
726.964
726.637
726.289
725.917
725.521
725.099
724.648
724.168
723.655
723.109
722.526
721.904
721.24
720.533
719.777
718.971
718.111
717.194
716.214
715.168
714.052
712.859
711.586
710.227
708.775
707.224
705.567
703.796
701.905
699.884
697.724
695.416
692.95
690.315
687.5
684.493
681.281
677.851
674.19
670.285
666.12
661.683
656.959
651.935
646.597
640.935
634.938
628.598
621.909
614.869
607.478
599.74
591.665
583.265
574.558
565.566
755.406
755.404
755.399
755.392
755.382
755.37
755.356
755.339
755.319
755.297
755.272
755.244
755.213
755.179
755.142
755.101
755.057
755.009
754.957
754.901
754.84
754.775
754.705
754.63
754.55
754.464
754.371
754.273
754.167
754.054
753.933
753.804
753.666
753.519
753.362
753.194
753.016
752.825
752.621
752.404
752.172
751.925
751.662
751.381
751.081
750.761
750.42
750.057
749.669
749.255
748.814
748.344
747.841
747.306
746.734
746.124
745.473
744.779
744.037
743.245
742.4
741.497
740.533
739.504
738.404
737.229
735.973
734.631
733.196
731.662
730.021
728.267
726.39
724.383
722.235
719.937
717.478
714.846
712.03
709.016
705.791
702.34
698.65
694.704
690.486
685.981
681.172
676.044
670.582
664.77
658.597
652.052
645.127
637.817
630.121
622.044
613.594
604.784
595.634
586.168
779.423
779.421
779.416
779.409
779.4
779.389
779.375
779.358
779.339
779.317
779.293
779.266
779.236
779.203
779.167
779.127
779.084
779.037
778.987
778.933
778.874
778.811
778.743
778.67
778.592
778.508
778.418
778.322
778.219
778.11
777.992
777.867
777.733
777.59
777.437
777.274
777.1
776.915
776.717
776.505
776.28
776.04
775.783
775.51
775.218
774.907
774.575
774.221
773.843
773.44
773.01
772.551
772.061
771.539
770.981
770.386
769.75
769.071
768.347
767.573
766.746
765.863
764.919
763.91
762.832
761.679
760.446
759.127
757.716
756.206
754.59
752.86
751.007
749.023
746.897
744.619
742.178
739.562
736.757
733.75
730.526
727.07
723.365
719.394
715.139
710.582
705.705
700.488
694.915
688.967
682.628
675.886
668.729
661.15
653.147
644.721
635.882
626.643
617.026
607.058
803.443
803.44
803.436
803.429
803.421
803.409
803.396
803.38
803.361
803.341
803.317
803.291
803.262
803.23
803.195
803.157
803.115
803.07
803.021
802.969
802.912
802.851
802.785
802.715
802.639
802.558
802.471
802.378
802.279
802.173
802.059
801.938
801.808
801.67
801.522
801.365
801.196
801.017
800.825
800.621
800.403
800.17
799.922
799.657
799.374
799.073
798.751
798.408
798.042
797.651
797.234
796.789
796.314
795.807
795.265
794.687
794.07
793.41
792.706
791.953
791.148
790.288
789.369
788.386
787.334
786.209
785.004
783.715
782.335
780.857
779.273
777.575
775.755
773.804
771.711
769.465
767.054
764.466
761.687
758.701
755.494
752.048
748.346
744.368
740.094
735.504
730.576
725.29
719.622
713.553
707.064
700.135
692.754
684.909
676.595
667.812
658.569
648.88
638.768
628.265
827.464
827.462
827.458
827.452
827.443
827.432
827.419
827.404
827.386
827.366
827.344
827.318
827.291
827.26
827.226
827.189
827.149
827.106
827.059
827.009
826.954
826.895
826.832
826.765
826.692
826.614
826.531
826.441
826.346
826.243
826.134
826.018
825.893
825.76
825.618
825.466
825.304
825.131
824.947
824.75
824.54
824.316
824.077
823.822
823.55
823.259
822.949
822.618
822.265
821.889
821.487
821.057
820.599
820.109
819.587
819.028
818.432
817.794
817.113
816.385
815.606
814.773
813.883
812.93
811.91
810.817
809.648
808.395
807.052
805.613
804.069
802.413
800.635
798.727
796.677
794.475
792.107
789.561
786.822
783.874
780.701
777.283
773.602
769.637
765.365
760.763
755.807
750.472
744.731
738.561
731.937
724.837
717.242
709.136
700.511
691.364
681.702
671.539
660.903
649.826
851.488
851.486
851.482
851.476
851.468
851.458
851.445
851.431
851.414
851.394
851.373
851.349
851.322
851.293
851.261
851.225
851.187
851.146
851.101
851.053
851.001
850.944
850.884
850.819
850.75
850.675
850.596
850.51
850.419
850.321
850.217
850.105
849.986
849.859
849.723
849.577
849.423
849.257
849.081
848.892
848.691
848.477
848.248
848.004
847.743
847.465
847.168
846.851
846.513
846.152
845.766
845.354
844.915
844.445
843.943
843.407
842.834
842.222
841.567
840.867
840.118
839.317
838.459
837.541
836.557
835.504
834.375
833.164
831.866
830.473
828.978
827.372
825.646
823.792
821.797
819.65
817.339
814.849
812.166
809.273
806.151
802.782
799.143
795.213
790.966
786.377
781.417
776.058
770.27
764.023
757.287
750.034
742.24
733.883
724.949
715.431
705.335
694.674
683.476
671.783
875.514
875.512
875.508
875.503
875.495
875.485
875.473
875.459
875.443
875.425
875.405
875.382
875.356
875.329
875.298
875.265
875.228
875.189
875.146
875.101
875.051
874.998
874.94
874.879
874.813
874.742
874.666
874.585
874.498
874.406
874.306
874.2
874.087
873.966
873.837
873.699
873.551
873.394
873.226
873.047
872.856
872.652
872.435
872.202
871.954
871.689
871.407
871.105
870.783
870.439
870.072
869.68
869.261
868.813
868.334
867.823
867.277
866.692
866.067
865.398
864.682
863.916
863.096
862.217
861.275
860.266
859.183
858.021
856.775
855.436
853.997
852.45
850.787
848.996
847.068
844.99
842.749
840.331
837.721
834.9
831.85
828.549
824.976
821.106
816.91
812.361
807.427
802.074
796.268
789.973
783.153
775.773
767.8
759.206
749.969
740.078
729.532
718.344
706.546
694.183
899.542
899.54
899.537
899.531
899.524
899.515
899.503
899.49
899.475
899.458
899.439
899.417
899.393
899.367
899.338
899.307
899.272
899.235
899.195
899.152
899.105
899.055
899.001
898.943
898.881
898.814
898.742
898.666
898.584
898.496
898.403
898.303
898.196
898.082
897.96
897.829
897.69
897.542
897.384
897.214
897.034
896.841
896.636
896.416
896.182
895.932
895.665
895.38
895.075
894.75
894.403
894.032
893.635
893.211
892.759
892.274
891.757
891.203
890.61
889.976
889.297
888.57
887.791
886.956
886.061
885.101
884.07
882.964
881.775
880.498
879.124
877.646
876.054
874.338
872.489
870.492
868.336
866.006
863.485
860.756
857.798
854.59
851.107
847.323
843.208
838.73
833.854
828.543
822.755
816.449
809.58
802.105
793.982
785.173
775.645
765.38
754.369
742.626
730.181
717.087
923.572
923.57
923.567
923.561
923.555
923.546
923.536
923.523
923.509
923.493
923.475
923.455
923.432
923.408
923.381
923.351
923.319
923.285
923.247
923.207
923.163
923.116
923.065
923.011
922.953
922.89
922.823
922.752
922.675
922.593
922.506
922.412
922.312
922.205
922.091
921.969
921.839
921.7
921.551
921.393
921.224
921.043
920.851
920.645
920.425
920.191
919.941
919.673
919.388
919.083
918.757
918.409
918.037
917.639
917.214
916.759
916.273
915.752
915.195
914.599
913.96
913.276
912.542
911.755
910.912
910.006
909.033
907.988
906.865
905.657
904.356
902.955
901.444
899.815
898.056
896.154
894.098
891.872
889.458
886.84
883.997
880.905
877.539
873.871
869.868
865.497
860.718
855.488
849.761
843.487
836.613
829.086
820.851
811.856
802.059
791.426
779.94
767.609
754.464
740.567
947.603
947.601
947.598
947.594
947.587
947.579
947.57
947.558
947.545
947.53
947.513
947.495
947.474
947.451
947.426
947.399
947.369
947.337
947.302
947.265
947.224
947.18
947.134
947.083
947.029
946.971
946.909
946.843
946.772
946.696
946.614
946.527
946.435
946.335
946.23
946.116
945.996
945.867
945.729
945.582
945.425
945.258
945.079
944.888
944.684
944.466
944.234
943.985
943.72
943.437
943.134
942.81
942.464
942.094
941.699
941.276
940.823
940.338
939.82
939.264
938.669
938.03
937.346
936.612
935.824
934.978
934.069
933.091
932.04
930.908
929.688
928.373
926.954
925.422
923.765
921.972
920.03
917.924
915.637
913.15
910.444
907.494
904.273
900.753
896.898
892.672
888.032
882.93
877.313
871.124
864.3
856.774
848.478
839.343
829.309
818.324
806.358
793.406
779.499
764.71
971.636
971.634
971.632
971.627
971.621
971.614
971.605
971.595
971.583
971.569
971.554
971.537
971.518
971.497
971.474
971.449
971.421
971.392
971.36
971.325
971.288
971.248
971.205
971.159
971.109
971.056
970.999
970.938
970.873
970.803
970.729
970.649
970.564
970.473
970.376
970.272
970.161
970.042
969.916
969.781
969.637
969.483
969.319
969.143
968.956
968.756
968.542
968.314
968.07
967.81
967.531
967.234
966.916
966.575
966.211
965.822
965.405
964.959
964.481
963.969
963.42
962.831
962.2
961.523
960.795
960.013
959.173
958.269
957.295
956.246
955.116
953.895
952.577
951.152
949.61
947.939
946.126
944.156
942.014
939.681
937.135
934.353
931.308
927.968
924.3
920.261
915.807
910.886
905.438
899.397
892.689
885.233
876.943
867.731
857.509
846.204
833.76
820.156
805.418
789.627
995.67
995.669
995.666
995.662
995.657
995.65
995.642
995.633
995.622
995.61
995.596
995.58
995.563
995.544
995.523
995.501
995.476
995.449
995.42
995.389
995.355
995.319
995.28
995.238
995.193
995.145
995.094
995.038
994.979
994.916
994.848
994.776
994.699
994.616
994.528
994.434
994.334
994.226
994.112
993.989
993.859
993.719
993.57
993.411
993.241
993.06
992.866
992.659
992.437
992.201
991.948
991.678
991.389
991.08
990.749
990.395
990.016
989.611
989.176
988.71
988.211
987.675
987.1
986.483
985.82
985.107
984.34
983.515
982.626
981.667
980.633
979.515
978.308
977
975.584
974.047
972.378
970.562
968.583
966.423
964.062
961.475
958.636
955.514
952.071
948.266
944.051
939.369
934.156
928.336
921.825
914.526
906.331
897.126
886.794
875.223
862.322
848.041
832.39
815.46
1019.71
1019.7
1019.7
1019.7
1019.69
1019.69
1019.68
1019.67
1019.66
1019.65
1019.64
1019.63
1019.61
1019.59
1019.57
1019.55
1019.53
1019.51
1019.48
1019.46
1019.42
1019.39
1019.36
1019.32
1019.28
1019.24
1019.19
1019.14
1019.09
1019.03
1018.97
1018.91
1018.84
1018.77
1018.69
1018.6
1018.51
1018.42
1018.32
1018.21
1018.09
1017.96
1017.83
1017.69
1017.54
1017.38
1017.2
1017.02
1016.82
1016.61
1016.38
1016.14
1015.88
1015.61
1015.31
1014.99
1014.65
1014.29
1013.9
1013.49
1013.04
1012.56
1012.04
1011.49
1010.89
1010.25
1009.57
1008.82
1008.03
1007.16
1006.23
1005.23
1004.14
1002.96
1001.68
1000.29
998.777
997.13
995.332
993.367
991.214
988.85
986.249
983.379
980.204
976.681
972.761
968.384
963.48
957.968
951.75
944.714
936.729
927.65
917.318
905.571
892.264
877.296
860.642
842.398
1043.74
1043.74
1043.74
1043.74
1043.73
1043.73
1043.72
1043.71
1043.71
1043.7
1043.68
1043.67
1043.66
1043.64
1043.63
1043.61
1043.59
1043.57
1043.55
1043.52
1043.5
1043.47
1043.44
1043.41
1043.37
1043.33
1043.29
1043.25
1043.2
1043.15
1043.1
1043.04
1042.98
1042.92
1042.85
1042.78
1042.7
1042.61
1042.53
1042.43
1042.33
1042.22
1042.1
1041.98
1041.84
1041.7
1041.55
1041.39
1041.22
1041.03
1040.83
1040.62
1040.39
1040.15
1039.89
1039.61
1039.32
1039
1038.66
1038.29
1037.9
1037.48
1037.02
1036.54
1036.01
1035.45
1034.85
1034.19
1033.49
1032.73
1031.91
1031.02
1030.06
1029.01
1027.88
1026.65
1025.31
1023.85
1022.25
1020.5
1018.58
1016.46
1014.13
1011.55
1008.68
1005.49
1001.93
997.925
993.413
988.304
982.493
975.85
968.222
959.427
949.255
937.479
923.869
908.235
890.484
870.697
1067.78
1067.78
1067.78
1067.78
1067.77
1067.77
1067.76
1067.76
1067.75
1067.74
1067.73
1067.72
1067.71
1067.7
1067.68
1067.67
1067.65
1067.63
1067.61
1067.59
1067.57
1067.55
1067.52
1067.49
1067.46
1067.43
1067.4
1067.36
1067.32
1067.28
1067.23
1067.18
1067.13
1067.08
1067.02
1066.96
1066.89
1066.82
1066.74
1066.66
1066.57
1066.48
1066.38
1066.27
1066.16
1066.04
1065.91
1065.77
1065.62
1065.47
1065.3
1065.11
1064.92
1064.71
1064.49
1064.26
1064
1063.73
1063.44
1063.12
1062.79
1062.43
1062.04
1061.62
1061.17
1060.69
1060.17
1059.61
1059.01
1058.36
1057.65
1056.89
1056.06
1055.16
1054.19
1053.12
1051.97
1050.7
1049.32
1047.8
1046.13
1044.29
1042.26
1040
1037.49
1034.68
1031.53
1027.97
1023.94
1019.34
1014.07
1007.97
1000.88
992.579
982.798
971.221
957.498
941.29
922.361
900.726
1091.82
1091.82
1091.82
1091.81
1091.81
1091.81
1091.8
1091.8
1091.79
1091.79
1091.78
1091.77
1091.76
1091.75
1091.74
1091.73
1091.71
1091.7
1091.68
1091.67
1091.65
1091.63
1091.61
1091.58
1091.56
1091.53
1091.5
1091.47
1091.44
1091.41
1091.37
1091.33
1091.29
1091.24
1091.19
1091.14
1091.09
1091.03
1090.96
1090.9
1090.82
1090.75
1090.67
1090.58
1090.48
1090.38
1090.28
1090.16
1090.04
1089.91
1089.77
1089.62
1089.46
1089.29
1089.11
1088.91
1088.7
1088.48
1088.24
1087.98
1087.7
1087.4
1087.08
1086.74
1086.37
1085.97
1085.54
1085.08
1084.57
1084.03
1083.45
1082.82
1082.13
1081.39
1080.58
1079.69
1078.73
1077.68
1076.52
1075.26
1073.86
1072.32
1070.61
1068.71
1066.59
1064.22
1061.54
1058.5
1055.04
1051.06
1046.46
1041.09
1034.75
1027.21
1018.14
1007.11
993.613
977.067
956.944
933.047
1115.86
1115.86
1115.86
1115.86
1115.85
1115.85
1115.85
1115.84
1115.84
1115.83
1115.83
1115.82
1115.81
1115.8
1115.8
1115.79
1115.78
1115.76
1115.75
1115.74
1115.72
1115.71
1115.69
1115.67
1115.65
1115.63
1115.61
1115.59
1115.56
1115.53
1115.51
1115.47
1115.44
1115.41
1115.37
1115.33
1115.28
1115.24
1115.19
1115.14
1115.08
1115.02
1114.96
1114.89
1114.81
1114.74
1114.65
1114.56
1114.47
1114.37
1114.26
1114.14
1114.01
1113.88
1113.74
1113.58
1113.42
1113.24
1113.05
1112.85
1112.63
1112.4
1112.15
1111.88
1111.59
1111.28
1110.94
1110.58
1110.18
1109.76
1109.3
1108.8
1108.26
1107.67
1107.04
1106.34
1105.58
1104.75
1103.84
1102.84
1101.73
1100.51
1099.15
1097.64
1095.95
1094.05
1091.9
1089.45
1086.65
1083.41
1079.62
1075.16
1069.83
1063.38
1055.43
1045.46
1032.78
1016.42
995.302
968.606
1139.9
1139.9
1139.9
1139.9
1139.89
1139.89
1139.89
1139.89
1139.88
1139.88
1139.88
1139.87
1139.87
1139.86
1139.85
1139.85
1139.84
1139.83
1139.82
1139.81
1139.8
1139.79
1139.78
1139.77
1139.75
1139.74
1139.72
1139.7
1139.69
1139.67
1139.65
1139.62
1139.6
1139.57
1139.55
1139.52
1139.49
1139.45
1139.42
1139.38
1139.34
1139.3
1139.25
1139.2
1139.15
1139.09
1139.03
1138.97
1138.9
1138.83
1138.75
1138.67
1138.58
1138.48
1138.38
1138.27
1138.15
1138.02
1137.89
1137.74
1137.58
1137.42
1137.24
1137.04
1136.83
1136.61
1136.37
1136.1
1135.82
1135.52
1135.19
1134.83
1134.44
1134.02
1133.56
1133.05
1132.51
1131.91
1131.25
1130.52
1129.72
1128.84
1127.85
1126.75
1125.52
1124.13
1122.56
1120.76
1118.69
1116.29
1113.47
1110.11
1106.04
1101.04
1094.72
1086.54
1075.62
1060.54
1039.23
1009.22
1163.94
1163.94
1163.94
1163.94
1163.94
1163.94
1163.93
1163.93
1163.93
1163.93
1163.93
1163.92
1163.92
1163.92
1163.91
1163.91
1163.9
1163.9
1163.89
1163.89
1163.88
1163.87
1163.87
1163.86
1163.85
1163.84
1163.83
1163.82
1163.81
1163.8
1163.79
1163.77
1163.76
1163.74
1163.73
1163.71
1163.69
1163.67
1163.65
1163.63
1163.6
1163.58
1163.55
1163.52
1163.49
1163.45
1163.42
1163.38
1163.34
1163.29
1163.25
1163.2
1163.14
1163.08
1163.02
1162.96
1162.89
1162.81
1162.73
1162.64
1162.55
1162.44
1162.34
1162.22
1162.09
1161.96
1161.81
1161.65
1161.48
1161.3
1161.1
1160.88
1160.65
1160.39
1160.12
1159.81
1159.48
1159.12
1158.72
1158.28
1157.8
1157.26
1156.67
1156
1155.25
1154.4
1153.44
1152.34
1151.08
1149.6
1147.85
1145.75
1143.2
1140
1135.89
1130.37
1122.6
1110.89
1091.88
1059.14
1187.98
1187.98
1187.98
1187.98
1187.98
1187.98
1187.98
1187.98
1187.98
1187.98
1187.98
1187.97
1187.97
1187.97
1187.97
1187.97
1187.97
1187.97
1187.96
1187.96
1187.96
1187.96
1187.96
1187.95
1187.95
1187.95
1187.94
1187.94
1187.94
1187.93
1187.93
1187.92
1187.92
1187.91
1187.91
1187.9
1187.9
1187.89
1187.88
1187.88
1187.87
1187.86
1187.85
1187.84
1187.83
1187.82
1187.81
1187.79
1187.78
1187.76
1187.75
1187.73
1187.71
1187.69
1187.67
1187.65
1187.63
1187.6
1187.58
1187.55
1187.51
1187.48
1187.44
1187.41
1187.36
1187.32
1187.27
1187.22
1187.16
1187.1
1187.03
1186.96
1186.88
1186.8
1186.7
1186.6
1186.49
1186.37
1186.24
1186.09
1185.93
1185.75
1185.55
1185.32
1185.07
1184.79
1184.47
1184.1
1183.67
1183.17
1182.58
1181.86
1180.99
1179.89
1178.45
1176.47
1173.52
1168.53
1158.24
1130.81
8.77042
26.3131
43.8612
61.4185
78.9888
96.5757
114.183
131.815
149.475
167.168
184.898
202.669
220.486
238.354
256.277
274.261
292.313
310.436
328.639
346.927
365.309
383.79
402.381
421.09
439.926
458.901
478.027
497.315
516.782
536.442
556.313
576.416
596.772
617.409
638.355
659.644
681.317
703.419
726.006
749.146
772.919
797.426
822.793
849.181
876.798
905.913
936.854
969.902
1004.65
1036.66
)
;

boundaryField
{
    leftBoundary
    {
        type            zeroGradient;
    }
    rightBoundary
    {
        type            zeroGradient;
    }
    ground
    {
        type            fixedValue;
        value           uniform 0;
    }
    frontAndBack
    {
        type            empty;
    }
    highVoltage
    {
        type            fixedValue;
        value           uniform 1200;
    }
    dielectric_to_region0
    {
        type            compressible::turbulentTemperatureCoupledBaffleMixed;
        refValue        uniform 1043.83;
        refGradient     uniform 0;
        valueFraction   uniform 0.25641;
        value           uniform 1038.5;
        Tnbr            voltAext;
        thicknessLayers 0();
        kappaLayers     0();
        kappaMethod     lookup;
        kappa           epsilonD;
        alphaAni        Anialpha;
    }
    procBoundary2to3
    {
        type            processor;
        value           nonuniform List<scalar> 
50
(
8.64851
25.9472
43.2509
60.5631
77.8871
95.2264
112.584
129.965
147.371
164.808
182.278
199.785
217.335
234.931
252.578
270.28
288.043
305.871
323.771
341.749
359.81
377.962
396.212
414.567
433.036
451.629
470.356
489.226
508.253
527.449
546.829
566.409
586.207
606.243
626.54
647.123
668.02
689.265
710.894
732.949
755.478
778.532
802.167
826.436
851.373
876.954
902.994
928.88
952.909
970.853
)
;
    }
}


// ************************************************************************* //
